Data from 38_USB2G479881__0__16-32-14-080.txt Node

Date: Wed Feb 25 16:32:14 GMT 2026
User: Student
Spectrometer: USB2G47988
Scans to average: 250
Trigger mode: 4
Integration Time (sec): 2.000000E-2
Electric dark correction enabled: true
Boxcar width: 0
XAxis mode: Wavelengths
Number of Pixels in Spectrum: 651
>>>>>Begin Spectral Data<<<<<
350	-0.41669
351	-0.35992
352	0.1239
353	0.35791
354	0.29479
355	0.64954
356	0.59792
357	0.69634
358	0.85576
359	0.83531
360	1.07444
361	1.34878
362	1.69642
363	1.35305
364	1.3888
365	2.0465
366	1.98995
367	2.08755
368	2.51605
369	2.19156
370	2.25855
371	2.56525
372	2.64557
373	2.68059
374	2.48134
375	2.75185
376	2.60992
377	3.53929
378	2.95482
379	2.89644
380	3.16142
381	3.40425
382	3.89117
383	3.52808
384	3.98374
385	3.59752
386	4.15921
387	3.95475
388	4.35996
389	4.11153
390	3.551
391	4.05538
392	4.00483
393	4.8163
394	4.77685
395	4.28076
396	4.17686
397	4.87968
398	5.49719
399	4.89672
400	4.74999
401	5.33159
402	4.78977
403	4.91968
404	4.82628
405	4.63518
406	5.54792
407	4.75421
408	5.05326
409	5.19494
410	5.62164
411	5.18101
412	5.00958
413	5.25968
414	5.41683
415	5.31499
416	5.3459
417	5.47912
418	5.47111
419	5.42063
420	5.26653
421	5.78371
422	5.9679
423	5.65131
424	5.79447
425	7.11721
426	6.07576
427	5.6242
428	5.60017
429	6.51264
430	6.42765
431	6.58227
432	5.68541
433	6.14713
434	5.92104
435	5.70933
436	6.57979
437	6.09259
438	5.88786
439	6.69969
440	6.72301
441	5.9376
442	5.84701
443	6.20121
444	5.85308
445	5.3417
446	10.03557
447	5.81328
448	6.03223
449	5.88141
450	6.04917
451	5.83572
452	5.64021
453	5.97548
454	6.55754
455	5.75897
456	5.69504
457	5.94739
458	5.59524
459	5.97039
460	5.85859
461	5.66735
462	5.82216
463	5.881
464	5.88738
465	5.65897
466	5.58781
467	5.55111
468	6.11095
469	5.67631
470	5.83413
471	5.49104
472	5.5421
473	5.3864
474	5.66632
475	5.28259
476	5.6215
477	5.42138
478	5.69299
479	5.57978
480	5.25521
481	5.77841
482	5.35376
483	5.2338
484	5.10155
485	5.34072
486	5.35287
487	5.32128
488	5.25358
489	5.66135
490	5.41193
491	5.37487
492	5.62727
493	5.32489
494	5.23611
495	5.32327
496	5.10953
497	5.33956
498	5.45008
499	5.3645
500	4.90215
501	5.21596
502	4.85106
503	4.87162
504	5.43759
505	5.2676
506	5.10721
507	5.0262
508	5.01716
509	7.53547
510	5.71747
511	4.81789
512	4.59429
513	5.0605
514	4.48202
515	4.69639
516	4.59823
517	4.53815
518	5.03951
519	4.65309
520	5.08634
521	4.62244
522	4.91782
523	4.80993
524	4.71687
525	6.63601
526	5.4373
527	4.92806
528	4.76453
529	5.12587
530	4.67656
531	4.82258
532	4.5328
533	4.57006
534	4.13034
535	4.93761
536	4.7003
537	5.94546
538	4.48349
539	4.27282
540	4.15349
541	3.89937
542	4.08809
543	3.899
544	4.15777
545	4.52708
546	4.96028
547	4.26614
548	4.21689
549	4.32821
550	4.26616
551	3.93012
552	3.90924
553	3.97147
554	4.04543
555	4.05588
556	4.30366
557	4.14593
558	4.24953
559	3.93636
560	4.01496
561	3.74997
562	3.99929
563	4.22066
564	4.4431
565	3.84177
566	4.12095
567	4.00646
568	3.67133
569	4.14263
570	3.52167
571	3.84923
572	3.55768
573	3.81328
574	3.71313
575	3.53329
576	3.43487
577	3.85958
578	3.49375
579	3.56953
580	3.46877
581	3.54132
582	3.69066
583	3.19839
584	3.3315
585	4.08633
586	3.8159
587	3.41155
588	3.1432
589	3.31301
590	3.47394
591	3.32877
592	3.39064
593	3.58711
594	3.90656
595	3.08448
596	3.31229
597	3.79833
598	4.19593
599	3.36705
600	3.56731
601	3.85276
602	3.87363
603	3.19787
604	3.56081
605	4.41252
606	3.12322
607	3.20176
608	3.34432
609	3.34512
610	3.36984
611	3.26047
612	3.3673
613	3.26253
614	4.70015
615	3.6627
616	3.26632
617	3.35406
618	3.47652
619	3.24522
620	3.21832
621	3.23674
622	3.13444
623	3.10028
624	3.08612
625	2.99891
626	3.20178
627	3.29145
628	3.77351
629	3.68185
630	3.21387
631	3.17001
632	4.93204
633	3.53617
634	3.58881
635	3.32268
636	3.2433
637	3.40031
638	3.26696
639	3.18261
640	3.99204
641	3.65743
642	3.54983
643	3.71691
644	3.42467
645	5.21335
646	6.37449
647	4.87853
648	4.74985
649	5.00175
650	5.40957
651	5.84066
652	6.7188
653	10.76006
654	23.38861
655	482.12947
656	192.89072
657	41.42041
658	12.76457
659	7.92412
660	5.67225
661	4.61177
662	4.13741
663	4.53199
664	3.71371
665	3.70828
666	3.23521
667	3.16481
668	3.11404
669	2.87541
670	2.97057
671	2.79811
672	2.69686
673	3.10582
674	2.79963
675	3.81917
676	3.19646
677	3.10694
678	3.51318
679	3.20367
680	2.78178
681	2.81815
682	3.07674
683	2.72209
684	2.89553
685	3.61935
686	2.60304
687	2.56745
688	2.74257
689	2.5239
690	2.74082
691	2.34546
692	2.36341
693	2.79555
694	2.65887
695	3.03071
696	2.53429
697	2.37903
698	2.16716
699	2.45035
700	2.37524
701	2.25383
702	2.09527
703	1.95444
704	2.62045
705	2.76228
706	2.74406
707	2.2369
708	2.36451
709	2.56501
710	2.29421
711	2.8396
712	2.36914
713	3.1231
714	2.27869
715	7.3019
716	2.44395
717	2.1128
718	2.33158
719	3.09321
720	2.15169
721	2.31115
722	2.05532
723	2.42778
724	2.17969
725	2.85945
726	2.26392
727	2.31167
728	2.10832
729	2.13796
730	3.57611
731	2.79332
732	2.02598
733	2.11932
734	2.16385
735	2.5006
736	2.66131
737	3.34713
738	2.60015
739	2.42133
740	2.06687
741	3.75312
742	2.31365
743	3.00971
744	2.70849
745	2.18334
746	2.51532
747	2.7302
748	2.70667
749	2.45937
750	2.21181
751	2.41414
752	2.1706
753	2.15015
754	1.87637
755	2.62359
756	2.12933
757	2.93283
758	3.65721
759	3.0347
760	1.94872
761	2.15715
762	2.92936
763	2.10271
764	2.16901
765	3.16241
766	2.72734
767	3.08368
768	2.2782
769	2.3239
770	2.17717
771	2.06914
772	2.20669
773	2.23823
774	2.42448
775	1.83775
776	2.7686
777	2.45318
778	2.0544
779	2.05951
780	2.0983
781	2.41816
782	2.04104
783	2.58055
784	2.61483
785	2.01682
786	2.3251
787	1.81352
788	3.6141
789	1.92459
790	2.06892
791	2.06989
792	1.92794
793	2.1063
794	2.06077
795	2.04558
796	1.95009
797	2.16588
798	2.25534
799	2.14253
800	2.21088
801	2.14469
802	1.94976
803	2.62815
804	1.95394
805	1.61353
806	1.95774
807	2.21728
808	2.3103
809	2.34375
810	2.5349
811	2.69633
812	3.39343
813	2.18373
814	2.26283
815	2.14202
816	2.11885
817	2.69357
818	2.154
819	2.0562
820	1.94877
821	3.17854
822	2.65628
823	2.33086
824	2.04527
825	1.886
826	1.81122
827	2.1659
828	2.04462
829	1.771
830	1.77525
831	2.01132
832	1.90505
833	2.12865
834	1.78829
835	2.22606
836	1.96783
837	2.00739
838	1.91052
839	2.2834
840	2.33365
841	2.14378
842	2.18181
843	2.03344
844	2.1385
845	2.1247
846	1.95576
847	2.66696
848	2.04712
849	1.91073
850	2.03969
851	1.6254
852	1.7379
853	2.00795
854	1.98834
855	2.00062
856	2.01168
857	1.92123
858	1.98333
859	1.80259
860	1.95518
861	1.72908
862	2.41209
863	2.2024
864	1.88385
865	2.34853
866	2.5872
867	2.26157
868	2.07694
869	2.56465
870	2.35028
871	2.95724
872	4.22326
873	2.01316
874	2.05104
875	2.1497
876	2.6112
877	2.08683
878	2.02151
879	2.34749
880	2.10808
881	2.09523
882	2.26759
883	1.82442
884	2.26794
885	1.64421
886	2.16595
887	3.2509
888	2.35809
889	2.00602
890	1.9577
891	2.72441
892	4.53259
893	2.65497
894	2.80418
895	2.36954
896	2.31379
897	2.15115
898	1.84377
899	1.92937
900	2.24465
901	4.7039
902	2.40537
903	2.12951
904	2.0561
905	1.96416
906	2.13437
907	1.88781
908	2.95599
909	2.33005
910	1.73564
911	1.81242
912	1.73167
913	2.09275
914	1.80955
915	2.07918
916	1.90388
917	2.10079
918	1.97776
919	2.05739
920	1.78993
921	2.29464
922	2.60788
923	2.50327
924	2.51249
925	2.10705
926	1.82637
927	2.31444
928	2.11632
929	1.73726
930	2.15915
931	2.1103
932	1.87166
933	2.20153
934	2.23866
935	2.30957
936	1.93376
937	1.88327
938	2.34444
939	2.44576
940	1.88307
941	1.89075
942	1.82256
943	2.04932
944	1.90831
945	4.05157
946	2.14686
947	2.36695
948	2.35349
949	2.06789
950	2.4025
951	2.39216
952	2.16282
953	1.99384
954	2.14181
955	1.97483
956	2.01078
957	2.08049
958	2.00614
959	1.94645
960	1.90853
961	1.83692
962	1.83213
963	2.01475
964	2.14622
965	1.84607
966	1.5301
967	1.95949
968	2.22051
969	2.56551
970	1.79901
971	2.06982
972	2.11719
973	2.41983
974	2.23901
975	1.80455
976	2.34401
977	2.07609
978	3.73085
979	2.18034
980	2.23676
981	2.17111
982	1.98351
983	1.91349
984	2.74532
985	1.96942
986	2.62729
987	1.86853
988	2.39146
989	2.2154
990	2.04146
991	1.75206
992	2.5952
993	2.29695
994	2.52706
995	1.86182
996	2.07852
997	2.50846
998	2.89416
999	2.82523
1000	2.06287
