Data from 45_USB2G479881__0__16-36-50-891.txt Node

Date: Wed Feb 25 16:36:50 GMT 2026
User: Student
Spectrometer: USB2G47988
Scans to average: 250
Trigger mode: 4
Integration Time (sec): 2.000000E-2
Electric dark correction enabled: true
Boxcar width: 0
XAxis mode: Wavelengths
Number of Pixels in Spectrum: 651
>>>>>Begin Spectral Data<<<<<
350	-0.42832
351	-0.1616
352	0.37098
353	-0.00909
354	0.22803
355	0.83803
356	0.86421
357	0.91331
358	0.91883
359	0.91941
360	1.03156
361	1.64569
362	1.71339
363	1.42077
364	1.7246
365	2.15546
366	1.88458
367	2.06374
368	2.64225
369	2.20745
370	2.29608
371	2.49694
372	2.58396
373	2.88214
374	2.8867
375	2.79027
376	2.91297
377	3.64505
378	3.23753
379	3.14436
380	3.55782
381	3.34263
382	3.83252
383	3.63114
384	4.3826
385	4.00399
386	4.22929
387	4.13708
388	4.62857
389	4.57172
390	4.37775
391	4.6219
392	4.34976
393	4.75489
394	4.97018
395	4.26172
396	4.45183
397	4.88628
398	5.61749
399	5.2016
400	4.99005
401	5.28
402	5.03532
403	4.94008
404	5.0979
405	5.07657
406	5.75124
407	5.20498
408	5.16938
409	5.06765
410	5.5565
411	5.3115
412	5.36504
413	5.18581
414	5.53076
415	5.39044
416	5.58446
417	5.84873
418	5.82554
419	5.44638
420	5.65149
421	5.80504
422	6.03456
423	6.031
424	5.86033
425	7.22544
426	6.10402
427	5.80012
428	5.73427
429	6.37829
430	6.44687
431	6.4993
432	5.74985
433	6.46804
434	6.23364
435	6.13138
436	6.9046
437	6.11421
438	6.13775
439	6.59965
440	6.40697
441	5.85292
442	6.24737
443	6.31988
444	6.06035
445	5.40095
446	10.36369
447	6.45309
448	6.41065
449	6.41148
450	6.10886
451	6.18442
452	5.79002
453	5.86107
454	6.41863
455	6.08784
456	6.19147
457	6.14058
458	5.96341
459	6.09681
460	6.00804
461	5.80713
462	5.9749
463	5.73434
464	5.82232
465	5.90959
466	5.915
467	5.83282
468	7.04155
469	5.92768
470	6.00276
471	5.85811
472	5.7618
473	5.49976
474	5.58338
475	5.3237
476	5.79332
477	5.81693
478	5.71364
479	5.91327
480	5.61016
481	6.19117
482	5.77924
483	5.4702
484	5.65165
485	5.46261
486	5.64507
487	5.41295
488	5.57998
489	6.01137
490	5.54012
491	5.49787
492	5.91999
493	5.49017
494	5.17318
495	5.4866
496	5.45648
497	5.69855
498	5.58384
499	5.5664
500	5.54076
501	5.60838
502	4.87022
503	5.07119
504	5.36522
505	5.23032
506	5.12266
507	5.26176
508	5.37916
509	7.50087
510	5.63003
511	4.92268
512	4.8543
513	5.27219
514	4.79166
515	4.90764
516	5.20468
517	4.60428
518	5.29514
519	4.82785
520	5.44303
521	5.14859
522	5.05119
523	5.06395
524	4.87837
525	6.83534
526	5.59139
527	5.13516
528	4.84347
529	5.49908
530	4.80014
531	4.63017
532	4.38212
533	4.80497
534	4.40894
535	4.83481
536	5.14692
537	6.30992
538	4.80577
539	4.46894
540	4.35829
541	4.27429
542	4.13062
543	4.1733
544	4.23518
545	4.27914
546	5.52922
547	4.30945
548	4.43644
549	4.58067
550	4.31489
551	4.12321
552	4.30444
553	3.97393
554	4.16941
555	4.44929
556	4.53218
557	3.88288
558	4.54251
559	4.15349
560	4.08168
561	4.20018
562	4.26336
563	4.07298
564	4.24435
565	3.97316
566	3.97422
567	4.1933
568	4.01427
569	4.1965
570	3.86145
571	3.74071
572	3.7729
573	3.56812
574	3.66335
575	3.83249
576	3.86004
577	3.63684
578	3.62125
579	3.59597
580	3.67088
581	3.76531
582	4.06989
583	3.56376
584	3.5069
585	4.18982
586	3.58222
587	3.51141
588	3.75048
589	3.46062
590	3.89184
591	3.55337
592	3.5577
593	3.6139
594	4.34799
595	3.5307
596	3.59437
597	3.9928
598	4.38285
599	3.52453
600	3.31723
601	3.84535
602	3.90554
603	3.28924
604	3.15031
605	3.87151
606	3.22382
607	3.42794
608	3.5961
609	3.56864
610	3.31176
611	3.39337
612	3.11185
613	3.55348
614	4.92362
615	3.83314
616	3.23899
617	3.40044
618	3.30501
619	3.16689
620	2.92096
621	3.03616
622	2.94682
623	2.83746
624	2.8782
625	3.2475
626	3.01464
627	3.37634
628	3.74371
629	3.56619
630	3.2335
631	3.1957
632	4.71772
633	3.54008
634	3.54011
635	3.30667
636	3.13524
637	3.25684
638	3.09195
639	3.25777
640	3.6875
641	3.10688
642	3.25347
643	3.21621
644	3.43826
645	4.6348
646	5.64742
647	3.67776
648	3.79865
649	4.06549
650	4.12142
651	4.00652
652	4.38877
653	6.35425
654	11.06481
655	175.57366
656	91.33184
657	26.29325
658	8.81651
659	5.51115
660	4.15857
661	3.56755
662	3.27658
663	4.00869
664	3.12266
665	3.13777
666	3.21744
667	3.21107
668	3.00915
669	2.77466
670	2.55857
671	2.76998
672	2.73797
673	2.63595
674	2.73463
675	3.81673
676	3.10281
677	3.33516
678	3.65253
679	3.17865
680	2.75616
681	2.76108
682	2.95194
683	2.8905
684	2.83178
685	3.64675
686	2.91571
687	2.65548
688	2.37416
689	2.57768
690	2.8979
691	2.4127
692	2.43396
693	2.69093
694	2.50067
695	3.07669
696	2.59873
697	2.41221
698	2.54714
699	2.55869
700	2.43391
701	2.56925
702	2.79753
703	2.29399
704	2.49247
705	2.87027
706	2.51747
707	2.40247
708	2.55901
709	2.36655
710	2.3075
711	2.9217
712	2.43327
713	3.13138
714	2.10613
715	8.24839
716	2.81984
717	2.51661
718	2.10009
719	2.73135
720	2.28619
721	2.54008
722	2.41341
723	2.73291
724	2.36819
725	2.90783
726	2.43966
727	2.63515
728	2.3273
729	2.22044
730	3.7903
731	2.78979
732	2.28312
733	2.35691
734	2.31906
735	2.5407
736	2.74145
737	3.26598
738	2.60605
739	2.59461
740	2.38697
741	3.90641
742	2.71844
743	2.96499
744	2.68444
745	2.12362
746	2.705
747	2.72912
748	2.95246
749	2.87401
750	2.30834
751	2.39356
752	2.25134
753	2.35139
754	2.23038
755	2.69608
756	2.53475
757	3.16992
758	3.6548
759	3.07994
760	2.35551
761	2.23549
762	4.1777
763	2.45361
764	2.18208
765	2.74613
766	2.59405
767	3.21607
768	2.29324
769	2.33218
770	2.17184
771	2.39716
772	2.38296
773	2.20119
774	2.223
775	2.19542
776	2.95359
777	2.50604
778	2.51991
779	2.19039
780	2.39897
781	2.40627
782	2.36311
783	2.85753
784	2.41823
785	2.22384
786	2.53441
787	2.1744
788	3.16524
789	2.25143
790	2.25876
791	2.22733
792	2.31157
793	2.39301
794	2.28024
795	2.15759
796	2.16041
797	2.45982
798	2.34422
799	2.16115
800	2.15326
801	1.85661
802	2.0055
803	3.02704
804	2.19448
805	2.1036
806	2.32183
807	2.46434
808	2.52263
809	2.38885
810	2.43862
811	3.11128
812	3.2932
813	2.34883
814	2.32361
815	2.25532
816	2.19415
817	2.31317
818	2.33717
819	2.16218
820	2.27768
821	3.28594
822	2.69569
823	2.24552
824	2.33245
825	2.36374
826	2.05221
827	2.14523
828	2.22644
829	2.21384
830	2.41697
831	2.02308
832	2.00859
833	2.51123
834	2.11944
835	2.11555
836	2.19476
837	2.28358
838	2.2754
839	2.18199
840	3.05034
841	2.23756
842	2.40918
843	2.18
844	2.15178
845	2.1271
846	2.00883
847	3.95257
848	2.19738
849	2.16688
850	1.92416
851	2.06169
852	1.96467
853	1.88199
854	1.9773
855	2.16807
856	2.57253
857	2.13842
858	2.10766
859	2.09211
860	2.1107
861	2.25045
862	2.51508
863	2.16094
864	2.15919
865	2.44799
866	2.52704
867	2.38575
868	1.82822
869	2.54806
870	2.70571
871	2.92169
872	4.22607
873	2.40568
874	2.36935
875	2.28956
876	2.88997
877	2.07326
878	1.84767
879	2.48813
880	2.20668
881	2.27753
882	2.39795
883	2.09163
884	2.5171
885	2.36083
886	2.45402
887	3.22451
888	2.37259
889	2.19653
890	1.82792
891	2.77202
892	4.6934
893	2.5967
894	2.94002
895	2.71951
896	2.32358
897	1.92043
898	1.91076
899	2.27407
900	2.54699
901	4.97508
902	2.26338
903	2.03697
904	1.89254
905	2.19367
906	2.10369
907	2.05244
908	3.30514
909	2.39771
910	2.09865
911	2.04528
912	2.14659
913	2.17118
914	1.89435
915	2.27154
916	2.33061
917	1.88471
918	2.19305
919	2.13867
920	1.83842
921	2.57417
922	2.77464
923	2.30221
924	2.55109
925	2.11351
926	1.85311
927	2.23596
928	2.13132
929	2.33559
930	2.28292
931	2.04856
932	1.92488
933	1.87743
934	2.20121
935	2.0386
936	1.93519
937	2.13257
938	2.62308
939	2.39863
940	2.39374
941	2.17909
942	1.7036
943	2.03604
944	2.29818
945	3.97131
946	2.20832
947	2.64727
948	2.46789
949	1.9936
950	2.29157
951	2.42032
952	2.11678
953	2.02411
954	2.33561
955	2.11167
956	1.88355
957	2.19844
958	1.93772
959	1.9467
960	1.99356
961	2.10427
962	2.10095
963	2.36718
964	2.24581
965	2.04649
966	2.06905
967	2.11573
968	1.88802
969	2.81417
970	1.84542
971	2.10265
972	2.21294
973	2.28485
974	1.90009
975	2.18307
976	2.2526
977	2.15292
978	3.69519
979	2.45372
980	2.40016
981	2.38049
982	2.35075
983	2.36652
984	2.96537
985	1.96129
986	2.76714
987	2.1989
988	2.79769
989	2.27325
990	2.17483
991	2.24353
992	2.81708
993	2.17757
994	2.65716
995	1.7879
996	2.12028
997	2.72955
998	2.1099
999	2.69848
1000	2.03603
