Data from 28_USB2G479881__0__15-59-20-974.txt Node

Date: Tue Feb 24 15:59:20 GMT 2026
User: Student
Spectrometer: USB2G47988
Scans to average: 10
Trigger mode: 4
Integration Time (sec): 6.000000E-1
Electric dark correction enabled: true
Boxcar width: 0
XAxis mode: Wavelengths
Number of Pixels in Spectrum: 651
>>>>>Begin Spectral Data<<<<<
350	0.23458
351	-0.47748
352	2.97764
353	-2.53328
354	-0.20146
355	1.46802
356	-0.79522
357	-1.51071
358	-3.37141
359	-3.75786
360	0.05145
361	7.46716
362	6.00062
363	-0.20904
364	-2.73416
365	8.5807
366	7.94663
367	1.15867
368	13.9876
369	4.95394
370	-0.91131
371	7.33962
372	1.89325
373	0.90945
374	1.51998
375	1.38866
376	-2.07421
377	21.95228
378	3.70806
379	0.38354
380	2.78515
381	1.56981
382	10.94803
383	-3.29135
384	12.49321
385	2.09867
386	10.15583
387	4.47102
388	17.52901
389	8.81052
390	-0.26737
391	3.15034
392	1.27795
393	14.35216
394	11.97306
395	0.9225
396	-1.10544
397	21.49976
398	15.26227
399	7.13851
400	7.11817
401	13.79766
402	4.86999
403	5.36435
404	1.60264
405	-0.51727
406	24.16141
407	1.98557
408	5.08914
409	2.91759
410	10.418
411	3.10545
412	3.02886
413	1.14527
414	2.07838
415	1.70246
416	4.98699
417	1.39252
418	3.18548
419	1.1544
420	2.51603
421	7.51972
422	13.84502
423	2.89432
424	5.24492
425	85.91677
426	6.55298
427	1.98564
428	2.87562
429	29.80567
430	13.69861
431	10.30609
432	1.69562
433	9.236
434	1.99527
435	1.06265
436	20.32556
437	5.5006
438	11.94524
439	52.09057
440	6.47286
441	0.58674
442	4.13819
443	16.00796
444	3.26223
445	-17.69805
446	4.44463
447	0.53636
448	6.37531
449	9.83653
450	3.94026
451	3.28281
452	1.86202
453	5.06814
454	17.09822
455	2.94887
456	7.11321
457	7.29621
458	1.71385
459	10.0696
460	5.09502
461	3.67307
462	3.64645
463	1.83131
464	1.68416
465	1.68946
466	2.16357
467	6.26798
468	18.44932
469	7.30314
470	4.11078
471	0.84311
472	2.12724
473	6.39706
474	6.30832
475	1.20426
476	2.91569
477	6.12439
478	5.79086
479	11.00724
480	-1.07119
481	8.57111
482	3.77832
483	1.87811
484	1.14843
485	-1.34717
486	5.56612
487	3.90378
488	4.12209
489	19.26889
490	6.30474
491	2.91475
492	13.51058
493	2.67958
494	2.12886
495	4.38473
496	1.71883
497	10.70379
498	15.75306
499	3.47074
500	2.27088
501	11.4951
502	1.37091
503	2.02305
504	13.63023
505	5.346
506	0.55968
507	2.38146
508	2.21347
509	-6.88767
510	22.71396
511	-0.04006
512	0.7603
513	12.32188
514	4.18846
515	4.57486
516	4.78065
517	0.45096
518	4.7992
519	1.59789
520	18.66617
521	3.45572
522	9.61882
523	6.09906
524	6.29909
525	104.6435
526	12.53231
527	16.10498
528	7.48914
529	26.15064
530	6.67118
531	2.38876
532	3.60276
533	13.31412
534	1.95303
535	13.34976
536	22.77999
537	44.22239
538	4.48534
539	3.63672
540	5.35763
541	3.35403
542	1.35379
543	4.83596
544	5.19601
545	7.53593
546	60.30865
547	3.84906
548	7.20657
549	11.51353
550	10.06996
551	2.19884
552	1.31584
553	0.65444
554	2.82041
555	10.28463
556	8.14405
557	4.28913
558	12.78239
559	4.89201
560	0.85125
561	4.13371
562	3.16886
563	5.72191
564	6.36672
565	2.17126
566	5.78219
567	4.32104
568	1.05446
569	7.7836
570	-0.25119
571	1.68505
572	2.54032
573	1.86266
574	1.13081
575	2.38948
576	0.36792
577	4.01313
578	0.70709
579	0.54397
580	3.67168
581	3.39298
582	22.57462
583	3.2966
584	-1.52577
585	11.71924
586	-0.3677
587	5.29867
588	0.24137
589	-0.61457
590	5.53414
591	0.61033
592	1.8727
593	0.78262
594	14.76096
595	-0.14139
596	6.25069
597	21.47963
598	21.18564
599	0.90377
600	10.47318
601	11.70802
602	22.77569
603	4.13533
604	10.11907
605	25.3221
606	2.1126
607	2.9669
608	11.08916
609	8.81284
610	5.46534
611	3.73811
612	2.35045
613	3.56103
614	106.32257
615	10.65511
616	2.41628
617	12.23189
618	9.19317
619	2.6074
620	7.09176
621	6.35144
622	5.33266
623	6.42735
624	5.74216
625	8.8028
626	7.20946
627	14.10116
628	21.6339
629	18.23484
630	10.44356
631	15.2043
632	109.33743
633	15.35644
634	24.05966
635	11.79751
636	12.5215
637	14.64814
638	14.87568
639	17.10145
640	25.9239
641	19.35002
642	26.8243
643	22.05683
644	21.88554
645	111.48165
646	27.95477
647	43.74407
648	44.10251
649	39.66699
650	52.10582
651	63.45399
652	101.2551
653	239.02528
654	547.63962
655	1252.96794
656	729.12357
657	158.05676
658	93.47104
659	90.17313
660	49.45291
661	33.02139
662	28.54166
663	78.97752
664	27.61423
665	22.95151
666	22.11779
667	21.64625
668	16.81581
669	18.68816
670	17.60583
671	17.81995
672	14.58799
673	16.50342
674	11.10787
675	26.60243
676	26.4862
677	16.8153
678	33.36766
679	17.18149
680	9.57487
681	10.00973
682	23.02464
683	4.92979
684	19.48416
685	51.37295
686	5.35658
687	5.9772
688	6.87666
689	5.30345
690	19.81248
691	4.79233
692	1.18302
693	10.32692
694	4.95556
695	14.66024
696	2.82946
697	-0.62428
698	0.25451
699	6.58767
700	1.43887
701	1.22319
702	3.40648
703	0.35718
704	2.08365
705	21.42403
706	0.46511
707	-0.16777
708	2.84974
709	0.39379
710	-0.49747
711	11.21416
712	1.6423
713	24.49061
714	-16.34966
715	-23.3439
716	3.56136
717	2.19637
718	0.71211
719	14.93869
720	-1.06457
721	0.96918
722	-0.47804
723	4.9507
724	0.31577
725	5.00623
726	2.44664
727	5.63352
728	1.2714
729	-1.95716
730	90.89759
731	7.20868
732	2.79101
733	2.64249
734	-0.38896
735	14.04159
736	6.80011
737	14.54892
738	1.72821
739	5.29143
740	0.87309
741	58.83328
742	0.20908
743	17.34013
744	11.96462
745	2.26277
746	12.69664
747	8.51154
748	21.4323
749	7.83107
750	5.07069
751	4.72203
752	0.44724
753	3.58357
754	-0.95566
755	15.69101
756	1.6083
757	49.1513
758	28.84018
759	26.27848
760	0.99644
761	2.60618
762	31.82592
763	-0.48384
764	0.28531
765	18.51816
766	4.61983
767	27.99883
768	0.79858
769	2.4332
770	-1.96262
771	0.91918
772	3.84843
773	-3.03447
774	0.28744
775	-3.5197
776	40.91172
777	1.3502
778	1.94532
779	-0.44346
780	2.55753
781	4.69201
782	-1.51457
783	9.96049
784	9.07527
785	-2.56667
786	7.49093
787	0.20997
788	15.44927
789	-0.51779
790	-0.28238
791	-2.29275
792	-0.99374
793	1.37872
794	-0.60938
795	-2.03663
796	0.50581
797	1.44156
798	0.11787
799	0.3186
800	2.70383
801	-1.75708
802	-0.31617
803	26.37057
804	-1.1967
805	-3.64154
806	2.5715
807	2.14887
808	4.48309
809	2.2123
810	10.22431
811	38.47548
812	25.28757
813	-0.37472
814	1.62199
815	2.40796
816	-0.19199
817	12.70901
818	3.4522
819	0.38635
820	-1.86428
821	61.64065
822	4.18103
823	-2.48807
824	5.67402
825	-0.95671
826	1.83881
827	-2.69732
828	3.15644
829	-1.96076
830	2.45111
831	1.7374
832	-4.24251
833	6.03292
834	-0.75322
835	7.04094
836	-1.62852
837	-1.22616
838	0.97645
839	3.85384
840	25.01585
841	2.013
842	3.72358
843	1.16551
844	4.21509
845	-1.70382
846	-8.03554
847	-0.90769
848	2.31394
849	-4.06798
850	-0.68201
851	-3.06809
852	-3.3203
853	-1.28939
854	-2.62324
855	0.72792
856	8.04881
857	-0.78224
858	-0.92647
859	0.5031
860	-0.32785
861	0.90925
862	7.68894
863	-0.8085
864	-1.93856
865	6.24604
866	14.36677
867	4.43981
868	-0.81598
869	9.43911
870	1.8713
871	15.44646
872	8.36783
873	-3.2757
874	0.54768
875	4.54681
876	12.18555
877	-0.19888
878	-4.00161
879	13.57928
880	4.89898
881	0.14956
882	5.35136
883	-2.71025
884	7.65949
885	-4.62121
886	-12.49968
887	2.83406
888	4.15573
889	-0.73735
890	1.20032
891	64.59361
892	39.83843
893	7.43663
894	32.0432
895	5.91941
896	1.30895
897	-2.61245
898	0.53328
899	0.3114
900	11.0147
901	108.20232
902	0.14852
903	-1.37281
904	-1.43339
905	1.15782
906	1.66889
907	-2.17965
908	45.17097
909	5.6405
910	-3.951
911	-1.8824
912	-2.60031
913	-1.76555
914	1.3083
915	1.40559
916	-0.90146
917	3.14031
918	-0.3121
919	-0.81101
920	-6.02797
921	7.0105
922	7.87849
923	5.36682
924	3.37644
925	-0.66121
926	-2.81214
927	4.82333
928	-1.97522
929	1.96024
930	-1.97323
931	-1.73887
932	0.12448
933	0.15537
934	5.43836
935	2.92343
936	0.18139
937	-2.03339
938	3.96355
939	16.97524
940	-1.55626
941	0.01293
942	-1.03093
943	-0.93131
944	2.41924
945	12.91231
946	-3.34427
947	3.54904
948	5.319
949	2.05258
950	15.47745
951	4.97542
952	-3.14952
953	0.9908
954	2.19218
955	0.70182
956	-0.79365
957	-1.27257
958	3.7536
959	-1.41944
960	0.51987
961	-2.10064
962	-3.09294
963	4.89017
964	-0.51652
965	1.8223
966	-3.8043
967	-1.28176
968	-1.82303
969	15.17113
970	-1.64621
971	4.79366
972	-3.90628
973	4.157
974	-1.58277
975	-3.32669
976	3.58241
977	6.67396
978	26.73632
979	1.75815
980	2.59501
981	3.0191
982	6.45747
983	-1.64478
984	24.33433
985	-0.95643
986	9.1129
987	-0.85514
988	11.54216
989	2.82951
990	-1.41382
991	-0.7779
992	23.15686
993	-2.73774
994	3.14951
995	-2.56809
996	0.86862
997	10.2609
998	6.34524
999	19.60255
1000	-2.87397
