Data from 17_USB2G479881__0__16-59-49-965.txt Node

Date: Wed Feb 25 16:59:49 GMT 2026
User: Student
Spectrometer: USB2G47988
Scans to average: 300
Trigger mode: 4
Integration Time (sec): 2.000000E-2
Electric dark correction enabled: true
Boxcar width: 0
XAxis mode: Wavelengths
Number of Pixels in Spectrum: 651
>>>>>Begin Spectral Data<<<<<
350	-0.5323
351	-0.19514
352	0.10188
353	0.17456
354	0.45101
355	0.56249
356	0.62113
357	0.65423
358	0.78217
359	0.88096
360	1.08732
361	1.54608
362	1.78922
363	1.44618
364	1.74343
365	2.19344
366	2.21494
367	2.08978
368	2.54921
369	2.213
370	2.43946
371	2.83538
372	2.69738
373	2.80899
374	3.04786
375	3.1034
376	3.05404
377	3.92731
378	3.56925
379	3.73376
380	3.80448
381	3.94586
382	4.11467
383	3.58061
384	4.67005
385	4.12839
386	4.78875
387	4.37987
388	4.65723
389	4.72125
390	4.60315
391	4.40007
392	4.69052
393	5.40814
394	4.97082
395	4.89661
396	4.83309
397	5.60818
398	6.17823
399	5.48311
400	5.39928
401	5.59351
402	5.65322
403	5.42331
404	5.39191
405	5.35147
406	6.29488
407	5.53648
408	5.98038
409	5.73009
410	5.97886
411	5.76044
412	5.86526
413	5.59761
414	5.74182
415	5.77918
416	5.99728
417	5.93589
418	6.25686
419	5.91074
420	6.25646
421	6.20359
422	6.5825
423	6.1504
424	6.35219
425	7.75364
426	6.48317
427	6.15377
428	6.17112
429	6.95009
430	6.79762
431	6.98549
432	6.28651
433	6.71151
434	6.33196
435	6.32989
436	7.11095
437	6.60598
438	6.95046
439	7.37241
440	6.81152
441	6.42778
442	6.33266
443	6.6772
444	6.38391
445	5.80052
446	10.47843
447	6.50857
448	6.74041
449	6.38799
450	6.48294
451	6.19058
452	6.39325
453	6.70546
454	6.94915
455	6.6178
456	6.56103
457	6.5144
458	6.34479
459	6.56157
460	6.69572
461	6.40193
462	6.35915
463	6.38584
464	6.47248
465	6.34662
466	6.29724
467	6.43838
468	6.95717
469	6.73216
470	6.45579
471	6.19948
472	6.07339
473	6.29183
474	6.30733
475	6.03037
476	6.49123
477	6.23114
478	6.33917
479	6.28195
480	6.14731
481	6.73723
482	6.30383
483	5.80962
484	5.96994
485	5.86586
486	6.00977
487	6.03464
488	6.05769
489	6.83108
490	5.90555
491	5.64271
492	6.09154
493	5.94909
494	5.70731
495	5.68232
496	5.78766
497	5.88074
498	6.0109
499	5.87662
500	5.72208
501	6.01419
502	5.65643
503	5.41078
504	5.76439
505	5.53159
506	5.37959
507	5.56677
508	5.62242
509	8.02085
510	6.14062
511	5.30722
512	5.30426
513	5.81102
514	5.55187
515	5.34772
516	5.29734
517	5.11095
518	5.88018
519	5.35678
520	5.67253
521	5.58008
522	5.96588
523	5.49413
524	5.30885
525	7.278
526	5.98341
527	5.64108
528	5.68127
529	6.07498
530	5.60922
531	5.39919
532	5.28119
533	5.5926
534	5.22218
535	5.79046
536	5.72107
537	6.88684
538	5.66557
539	5.08742
540	5.12677
541	5.19726
542	4.85474
543	4.9537
544	5.29773
545	5.32225
546	6.09315
547	5.34549
548	5.27161
549	5.06424
550	5.2535
551	4.64373
552	4.79842
553	4.71776
554	4.90905
555	5.00036
556	5.03058
557	4.93922
558	5.06643
559	4.8489
560	4.81773
561	4.54064
562	4.77447
563	4.65556
564	4.75366
565	4.3301
566	4.40354
567	4.46641
568	4.265
569	4.43586
570	4.21294
571	4.4434
572	4.41072
573	4.25112
574	4.28578
575	4.33114
576	4.32513
577	4.28203
578	4.13807
579	4.22785
580	4.19172
581	4.40816
582	4.68914
583	4.22735
584	4.04141
585	4.54272
586	4.24591
587	4.18812
588	3.91962
589	4.04912
590	4.10443
591	3.82539
592	3.99282
593	4.00004
594	4.49328
595	4.07271
596	4.4125
597	4.55428
598	4.9131
599	4.12916
600	3.99474
601	4.63904
602	4.80084
603	4.33107
604	4.3866
605	5.22242
606	4.3483
607	4.44677
608	4.40655
609	4.57267
610	4.62088
611	4.41026
612	4.36659
613	4.42814
614	6.11827
615	5.00899
616	4.95107
617	4.6736
618	5.00418
619	4.95026
620	4.82403
621	5.06007
622	4.92435
623	5.35373
624	5.39155
625	5.72079
626	5.53723
627	6.37093
628	6.87962
629	6.95896
630	6.62988
631	6.9917
632	8.54336
633	7.49718
634	8.31101
635	8.01636
636	8.59699
637	8.5211
638	9.40409
639	10.12414
640	11.69596
641	11.80738
642	12.37795
643	12.82894
644	14.90791
645	17.07647
646	18.203
647	19.27078
648	21.66566
649	24.60519
650	27.26756
651	32.26821
652	39.67849
653	74.27232
654	225.70529
655	2854.63485
656	1163.97208
657	221.61811
658	51.62127
659	33.83474
660	23.84459
661	19.12775
662	15.7904
663	14.83152
664	12.78187
665	11.83152
666	10.33664
667	9.50135
668	8.85408
669	8.27992
670	8.07945
671	7.08947
672	6.51201
673	6.77945
674	6.32474
675	6.78292
676	6.36925
677	6.13315
678	5.73408
679	5.28882
680	4.95614
681	4.83083
682	4.8122
683	4.36444
684	4.51575
685	5.05861
686	4.05185
687	3.76217
688	3.99836
689	3.74337
690	3.99849
691	3.70416
692	3.46075
693	3.79286
694	3.45458
695	4.06838
696	3.42698
697	3.40303
698	3.22102
699	3.33466
700	3.07917
701	3.17145
702	3.01003
703	2.91873
704	2.98763
705	3.49187
706	3.1106
707	2.71112
708	2.77473
709	2.68496
710	2.90445
711	3.39358
712	2.82571
713	3.45647
714	2.45225
715	8.53639
716	2.91415
717	2.8712
718	2.48355
719	3.31675
720	2.81765
721	2.75988
722	2.71789
723	2.75233
724	2.55048
725	3.21342
726	3.04408
727	2.79655
728	2.42003
729	2.53815
730	4.03099
731	3.30877
732	2.62455
733	2.7046
734	2.44789
735	2.84934
736	2.58003
737	3.10105
738	2.58881
739	2.88343
740	2.32093
741	4.01742
742	2.5997
743	2.9389
744	2.82558
745	2.67624
746	2.82575
747	2.75766
748	3.00393
749	2.84523
750	2.67391
751	2.38224
752	2.4293
753	2.36676
754	2.13904
755	2.89206
756	2.38334
757	3.10848
758	3.7074
759	3.28178
760	2.31673
761	2.34355
762	4.32701
763	2.53098
764	2.50208
765	2.76649
766	2.71811
767	3.46909
768	2.32715
769	2.36743
770	2.13428
771	2.11913
772	2.29518
773	2.23442
774	2.14247
775	2.14877
776	3.30019
777	2.51781
778	2.39741
779	2.07789
780	2.11903
781	2.37088
782	2.16018
783	2.75144
784	2.47335
785	2.22932
786	2.50356
787	2.1555
788	3.2386
789	2.10068
790	2.22166
791	1.82738
792	2.12882
793	2.21886
794	2.49731
795	2.1999
796	2.20197
797	2.24909
798	2.16053
799	2.40421
800	2.44541
801	2.35958
802	2.35873
803	2.7284
804	2.26784
805	2.12442
806	2.3276
807	2.25844
808	2.2426
809	2.27568
810	2.53924
811	2.86799
812	3.38779
813	2.00588
814	2.17322
815	2.2114
816	2.37533
817	2.54858
818	2.24294
819	2.12196
820	2.28362
821	3.26782
822	2.48011
823	2.09462
824	2.40777
825	2.17889
826	2.41369
827	1.99201
828	2.0635
829	1.95477
830	2.1126
831	2.05617
832	2.17955
833	2.10782
834	2.0201
835	2.36436
836	2.06091
837	1.99299
838	2.07136
839	2.20797
840	2.37975
841	2.22704
842	2.16509
843	2.363
844	2.1848
845	2.05192
846	1.75052
847	3.73426
848	2.03017
849	1.94445
850	2.21627
851	1.77998
852	2.02776
853	2.0811
854	2.00836
855	1.99694
856	2.50028
857	2.082
858	2.30977
859	2.27608
860	1.96103
861	1.94819
862	2.34823
863	1.974
864	1.88869
865	2.68446
866	2.33232
867	2.24245
868	2.11014
869	2.55876
870	2.14842
871	3.14819
872	4.56543
873	2.13882
874	2.22254
875	2.27789
876	2.71985
877	2.06171
878	1.97479
879	2.48292
880	2.22122
881	2.28961
882	2.355
883	1.95353
884	2.19684
885	2.01264
886	2.07681
887	3.38125
888	2.34829
889	2.07302
890	2.12497
891	2.8809
892	4.51378
893	2.58837
894	2.99936
895	2.40793
896	2.18603
897	1.83697
898	1.89004
899	2.11135
900	2.61662
901	5.04352
902	2.39968
903	1.89165
904	1.86136
905	2.17708
906	2.11403
907	2.08432
908	3.19345
909	2.41459
910	1.83671
911	2.00841
912	1.91
913	2.05022
914	2.13077
915	2.11726
916	2.03312
917	2.34816
918	2.25073
919	2.09496
920	1.89164
921	2.73
922	2.88358
923	2.3534
924	2.33872
925	2.18166
926	1.83618
927	2.05079
928	1.89174
929	1.99576
930	2.29126
931	2.06148
932	2.24232
933	2.13464
934	2.33452
935	2.21393
936	1.9736
937	2.01472
938	2.14741
939	2.15817
940	2.02238
941	2.23773
942	2.09291
943	2.14848
944	2.05646
945	3.73691
946	2.13089
947	2.65946
948	2.15011
949	2.12935
950	2.29648
951	2.50698
952	2.03073
953	1.99772
954	2.24255
955	2.30322
956	2.13062
957	1.93611
958	2.12242
959	2.20177
960	1.99627
961	1.99981
962	1.66623
963	2.1045
964	1.99823
965	2.07649
966	2.13806
967	1.88331
968	2.02924
969	2.68316
970	1.97418
971	2.18269
972	1.97694
973	2.08704
974	2.08613
975	2.02477
976	2.28806
977	2.43361
978	3.97738
979	2.30248
980	2.34406
981	2.23276
982	2.52931
983	2.1324
984	3.04592
985	2.01123
986	2.31699
987	2.00034
988	2.59558
989	1.97056
990	1.83276
991	1.98791
992	2.49578
993	2.09678
994	2.69431
995	2.01707
996	2.11086
997	2.4099
998	3.04064
999	2.55013
1000	2.02354
