Data from 12_USB2G479881__0__16-40-44-023.txt Node

Date: Thu Feb 26 16:40:44 GMT 2026
User: Student
Spectrometer: USB2G47988
Scans to average: 15
Trigger mode: 4
Integration Time (sec): 2.000000E-1
Electric dark correction enabled: true
Boxcar width: 0
XAxis mode: Wavelengths
Number of Pixels in Spectrum: 651
>>>>>Begin Spectral Data<<<<<
350	0.08068
351	-0.41774
352	-0.20637
353	0.7145
354	-0.17107
355	0.8317
356	0.27202
357	1.58382
358	0.8158
359	-0.36586
360	0.84878
361	3.55603
362	3.92352
363	-0.7926
364	0.15566
365	4.46943
366	3.11671
367	1.26768
368	5.62291
369	3.71559
370	1.53479
371	4.10393
372	2.4761
373	3.04255
374	1.87743
375	2.67072
376	2.24577
377	8.55312
378	4.23161
379	2.43797
380	3.74603
381	3.01475
382	6.65636
383	1.99768
384	6.62539
385	3.28926
386	5.42307
387	4.46665
388	8.66636
389	4.33014
390	2.92806
391	4.38634
392	3.76559
393	8.21594
394	8.01333
395	4.99643
396	3.33734
397	10.76885
398	9.00211
399	4.36414
400	4.80804
401	7.24972
402	5.43383
403	4.14055
404	3.02289
405	3.32018
406	11.87136
407	3.79002
408	3.06256
409	2.86426
410	6.43248
411	4.22747
412	3.68379
413	3.33309
414	3.98635
415	2.88268
416	4.34904
417	2.169
418	3.93228
419	3.43602
420	0.90972
421	6.77499
422	7.1301
423	4.79638
424	5.34093
425	24.56534
426	5.66309
427	3.37599
428	2.28826
429	11.02978
430	6.47555
431	7.27729
432	3.95032
433	7.48932
434	5.3183
435	2.5298
436	10.2704
437	5.71453
438	5.96018
439	15.93009
440	5.8661
441	4.67383
442	5.64617
443	10.55736
444	4.78589
445	-0.59342
446	14.08633
447	7.0878
448	6.71852
449	7.83641
450	5.52727
451	5.87535
452	6.78736
453	7.28408
454	11.82736
455	7.39311
456	9.81431
457	8.16441
458	7.67445
459	11.03751
460	10.14611
461	8.21644
462	8.93822
463	8.86284
464	7.55897
465	7.97573
466	7.30633
467	7.08983
468	12.41787
469	8.08317
470	7.25422
471	6.61084
472	7.06596
473	7.22547
474	7.80361
475	7.59243
476	7.26839
477	9.46303
478	7.98393
479	10.31444
480	7.0833
481	8.90297
482	6.67265
483	5.32364
484	5.64615
485	5.81722
486	6.97841
487	6.93971
488	6.95357
489	11.17056
490	6.57793
491	5.89013
492	7.87224
493	4.95708
494	6.31751
495	6.67343
496	4.70864
497	8.61006
498	7.81713
499	5.91256
500	4.68465
501	9.10162
502	5.47102
503	4.01636
504	7.94568
505	5.7055
506	4.93006
507	4.835
508	4.90958
509	10.05296
510	14.07447
511	5.32324
512	6.1599
513	9.97158
514	6.96613
515	6.86979
516	7.09742
517	5.43886
518	8.02112
519	7.03706
520	11.89887
521	8.10906
522	10.04638
523	8.41035
524	8.79371
525	34.52132
526	11.39064
527	14.44772
528	9.27342
529	15.77217
530	10.94116
531	7.91745
532	10.8054
533	12.83154
534	7.23903
535	13.94151
536	15.89888
537	23.20156
538	10.1416
539	8.98207
540	10.25932
541	9.4084
542	8.98951
543	11.10501
544	9.93356
545	9.66653
546	24.64521
547	9.66135
548	10.76679
549	10.54803
550	11.46058
551	9.6843
552	7.26513
553	5.70258
554	8.50518
555	9.87584
556	9.63542
557	7.0902
558	11.34598
559	6.93673
560	6.5422
561	6.55198
562	7.19306
563	7.78152
564	8.14505
565	5.87654
566	6.53846
567	6.66098
568	5.49583
569	7.67547
570	4.50329
571	4.42617
572	5.10779
573	5.23744
574	3.91769
575	4.49312
576	5.73848
577	5.73139
578	7.03055
579	5.08924
580	4.56883
581	4.91049
582	11.39984
583	5.93297
584	3.8199
585	8.67723
586	4.29845
587	4.91248
588	3.57701
589	4.80252
590	6.60276
591	4.93516
592	4.68191
593	4.94573
594	10.21437
595	5.81852
596	8.31298
597	11.31722
598	10.28103
599	5.21423
600	9.24572
601	10.8509
602	13.11767
603	7.24075
604	9.5911
605	12.90342
606	7.57005
607	6.88864
608	9.05652
609	9.0676
610	7.21861
611	6.61532
612	7.60587
613	6.20867
614	29.25966
615	10.25324
616	8.76467
617	10.16667
618	8.15204
619	8.33247
620	7.41177
621	8.02458
622	7.99039
623	9.82241
624	8.91698
625	11.48641
626	10.39693
627	12.23942
628	15.34724
629	15.156
630	13.22757
631	13.0118
632	39.04071
633	14.82367
634	17.76119
635	15.08007
636	13.55505
637	17.9978
638	18.71201
639	17.89968
640	24.16448
641	20.4987
642	21.63334
643	24.45001
644	27.491
645	64.74906
646	37.07271
647	40.93573
648	49.72372
649	47.91473
650	57.75875
651	76.9143
652	96.72295
653	256.18665
654	1308.33417
655	3442.1224
656	478.94109
657	146.31053
658	76.51472
659	64.83814
660	40.3966
661	34.19339
662	32.48345
663	37.83836
664	24.36455
665	23.16806
666	20.97921
667	19.41652
668	15.92818
669	15.75107
670	13.36551
671	14.04415
672	13.06442
673	13.85628
674	10.16471
675	15.69616
676	13.50851
677	11.2654
678	15.88896
679	9.47325
680	9.94686
681	8.1112
682	10.80842
683	6.22365
684	9.4945
685	19.09988
686	6.12413
687	4.93609
688	4.11219
689	2.63198
690	7.24596
691	4.17027
692	2.69708
693	5.46664
694	4.78468
695	7.15975
696	3.82015
697	4.05147
698	3.06823
699	4.80253
700	2.45213
701	2.42409
702	3.28968
703	2.24025
704	2.70137
705	8.72038
706	2.23985
707	2.14949
708	3.41835
709	2.72041
710	1.95799
711	5.36969
712	1.54336
713	8.76918
714	-3.27337
715	9.91285
716	2.03152
717	3.25326
718	1.39329
719	6.54251
720	0.2785
721	1.46936
722	1.74171
723	1.95929
724	1.59321
725	2.76155
726	2.12606
727	1.99713
728	1.57403
729	1.17609
730	21.82062
731	3.48751
732	3.87456
733	2.23919
734	2.34651
735	4.26173
736	2.62668
737	7.31865
738	2.52815
739	3.4444
740	1.25447
741	16.86839
742	1.17642
743	5.56839
744	5.37001
745	2.46816
746	5.89759
747	5.1104
748	7.8593
749	3.65796
750	2.43822
751	2.90674
752	0.77481
753	2.17346
754	-0.02579
755	5.32741
756	1.23031
757	13.16902
758	11.69035
759	9.16501
760	1.66309
761	2.58382
762	30.15241
763	1.59962
764	0.83
765	5.23881
766	1.48782
767	9.5679
768	1.16038
769	2.7594
770	0.66392
771	2.03248
772	3.2618
773	0.40231
774	2.44135
775	-1.32262
776	13.40552
777	2.47295
778	2.19769
779	0.52359
780	1.73073
781	2.11303
782	-0.33123
783	4.42604
784	4.17962
785	0.12519
786	4.8058
787	0.95002
788	6.95
789	1.27294
790	1.7042
791	-0.08731
792	0.5686
793	1.46573
794	-0.22701
795	1.6074
796	1.946
797	2.94914
798	0.46214
799	0.88293
800	1.67894
801	0.67486
802	0.63133
803	9.62683
804	0.44638
805	-0.53412
806	1.75494
807	1.60719
808	2.1122
809	2.25713
810	4.38054
811	11.8023
812	9.41464
813	1.19346
814	1.52101
815	1.64658
816	0.96386
817	3.46164
818	2.19542
819	-0.57252
820	-0.36325
821	16.10287
822	2.51087
823	0.20858
824	1.80287
825	1.52324
826	2.90481
827	0.87506
828	1.28668
829	0.09038
830	2.79719
831	2.22968
832	0.43263
833	3.25082
834	-0.96241
835	3.85394
836	1.11789
837	0.23298
838	1.58296
839	2.65063
840	9.0108
841	1.98196
842	2.70008
843	0.51759
844	2.75114
845	1.75761
846	-1.12616
847	7.6729
848	1.52563
849	0.70576
850	1.91793
851	-0.55793
852	0.54042
853	1.52377
854	0.96275
855	1.86271
856	4.40955
857	0.38492
858	0.81778
859	0.71426
860	0.575
861	1.63179
862	3.13093
863	0.91357
864	1.04705
865	3.80832
866	4.69456
867	2.51479
868	1.1694
869	4.01985
870	1.9064
871	8.38305
872	10.05977
873	0.94584
874	1.61936
875	2.28942
876	5.24511
877	1.31856
878	-0.77908
879	4.35812
880	4.35902
881	1.71448
882	3.4598
883	0.46321
884	3.77036
885	-1.35875
886	-0.65561
887	4.32026
888	1.83966
889	0.72517
890	0.8774
891	2.74761
892	6.6191
893	3.82039
894	11.86042
895	2.15494
896	1.60457
897	0.82647
898	0.71924
899	0.34563
900	4.89843
901	31.61314
902	1.14786
903	0.01246
904	1.24924
905	0.01627
906	2.44955
907	-1.49308
908	13.57529
909	2.50375
910	-0.46944
911	1.14911
912	0.86191
913	0.49991
914	2.55743
915	0.54439
916	1.36393
917	1.94
918	-0.0252
919	2.00924
920	-0.65839
921	4.00542
922	3.93375
923	2.40864
924	1.03161
925	2.64766
926	0.35592
927	2.59202
928	0.43038
929	1.75988
930	1.9617
931	0.86052
932	1.65071
933	1.4019
934	2.07975
935	1.06877
936	0.82492
937	0.0088
938	2.53223
939	4.81204
940	0.55589
941	-0.39296
942	0.55113
943	0.22868
944	1.91257
945	11.45797
946	0.84195
947	1.90277
948	3.05971
949	1.20943
950	5.73804
951	3.102
952	-0.07668
953	1.30992
954	1.57259
955	0.61147
956	0.59714
957	1.21992
958	1.00646
959	0.18178
960	1.64584
961	0.08461
962	0.04839
963	2.62755
964	1.00141
965	1.92907
966	1.10775
967	0.40485
968	-0.55246
969	6.00815
970	0.32554
971	3.84563
972	0.05982
973	2.40476
974	4.16958
975	0.42796
976	2.48406
977	1.83482
978	19.96398
979	1.59616
980	1.14366
981	2.48637
982	2.21204
983	1.10153
984	9.2601
985	0.73722
986	3.46669
987	1.28434
988	5.14203
989	1.87748
990	0.07147
991	1.21563
992	7.98248
993	2.11248
994	2.55389
995	-0.29706
996	1.71476
997	4.33165
998	0.87277
999	7.76539
1000	-0.18941
