Data from 17_USB2G479881__1__15-16-48-939.txt Node

Date: Tue Feb 24 15:16:48 GMT 2026
User: Student
Spectrometer: USB2G47988
Scans to average: 10
Trigger mode: 4
Integration Time (sec): 8.000000E-1
Electric dark correction enabled: true
Boxcar width: 0
XAxis mode: Wavelengths
Number of Pixels in Spectrum: 651
>>>>>Begin Spectral Data<<<<<
350	1.69787
351	0.6015
352	1.60359
353	-2.55925
354	-1.34371
355	2.5408
356	-0.4207
357	-0.39148
358	-3.98472
359	-2.14715
360	0.46114
361	11.24939
362	9.74153
363	-1.4951
364	-5.45112
365	11.58668
366	11.29261
367	3.43934
368	15.90678
369	8.09561
370	0.55166
371	10.85656
372	4.71743
373	2.3869
374	1.34328
375	1.36805
376	-1.6703
377	28.18632
378	3.86908
379	0.42545
380	4.03915
381	2.64601
382	14.15021
383	-3.82858
384	14.67072
385	3.82374
386	12.5953
387	5.03582
388	23.0365
389	11.26268
390	-0.1399
391	0.56898
392	2.16903
393	21.01649
394	14.28663
395	1.40039
396	-1.11964
397	32.7775
398	18.41216
399	7.97812
400	10.63725
401	14.81913
402	5.29521
403	4.09712
404	0.60243
405	0.65709
406	29.44516
407	1.37456
408	6.17697
409	2.81105
410	12.1989
411	3.78484
412	3.64582
413	-0.35899
414	1.42608
415	3.81967
416	6.63823
417	2.12915
418	5.67309
419	2.72347
420	2.88173
421	7.96424
422	18.46232
423	4.03155
424	6.45158
425	122.29021
426	9.07029
427	1.53119
428	1.7877
429	38.78935
430	15.82012
431	8.44058
432	2.61047
433	11.93366
434	3.87059
435	-1.89428
436	20.10505
437	5.48114
438	19.30444
439	75.62072
440	8.40414
441	2.28826
442	7.71446
443	26.55715
444	7.28296
445	-17.6853
446	-0.91256
447	3.55119
448	9.17643
449	19.29862
450	9.46851
451	10.88886
452	9.25671
453	15.0769
454	27.39589
455	14.93679
456	21.30511
457	19.17305
458	15.46816
459	30.15369
460	16.87043
461	14.20643
462	17.6353
463	13.59158
464	13.35923
465	14.71807
466	12.02797
467	15.12914
468	24.64976
469	18.69507
470	15.22275
471	10.4051
472	12.72202
473	16.87712
474	16.28711
475	10.68321
476	12.49521
477	17.44126
478	17.18854
479	24.29992
480	8.19991
481	15.50486
482	13.57976
483	8.5109
484	9.07607
485	6.791
486	12.2785
487	11.24887
488	8.78679
489	29.20607
490	12.17473
491	5.61585
492	20.90453
493	6.55141
494	5.71063
495	12.21104
496	5.74663
497	16.17324
498	24.8127
499	9.96535
500	4.68069
501	21.11111
502	5.75291
503	7.70853
504	23.3673
505	10.97189
506	5.14031
507	6.97714
508	5.95139
509	-9.95142
510	38.12577
511	8.3644
512	7.96464
513	24.29719
514	13.86038
515	16.53465
516	16.2612
517	9.71643
518	14.35989
519	15.34491
520	39.2572
521	17.25085
522	24.22743
523	22.97944
524	23.99968
525	164.35704
526	30.79619
527	43.15038
528	23.89113
529	52.79235
530	26.43155
531	23.83057
532	22.43685
533	39.26017
534	20.69107
535	30.35152
536	57.53193
537	71.2867
538	23.51657
539	24.54676
540	25.53532
541	21.16349
542	19.04973
543	25.44601
544	20.85949
545	24.8825
546	113.54929
547	20.66814
548	23.96872
549	29.83939
550	29.00082
551	17.26801
552	16.96958
553	14.61849
554	16.58947
555	28.92104
556	22.62712
557	15.87297
558	26.84677
559	19.51284
560	13.79014
561	16.66107
562	12.54942
563	18.99522
564	18.26662
565	12.13732
566	14.83762
567	14.71702
568	8.93735
569	15.64725
570	9.24097
571	9.00367
572	9.70287
573	8.77454
574	7.41583
575	8.82062
576	7.27125
577	10.779
578	9.87192
579	5.89919
580	11.29158
581	8.02321
582	42.80756
583	8.96446
584	3.2223
585	16.91184
586	5.62957
587	9.45536
588	4.85434
589	5.46216
590	17.51715
591	8.0144
592	13.27708
593	7.78989
594	21.53726
595	8.70786
596	16.58134
597	37.39108
598	34.76254
599	10.85952
600	28.15695
601	19.5429
602	40.26671
603	13.16419
604	20.80749
605	41.04967
606	13.40186
607	13.12894
608	25.2862
609	21.93552
610	15.28322
611	15.49829
612	13.75199
613	16.8607
614	161.66313
615	27.0503
616	15.00688
617	30.27619
618	22.10613
619	18.44123
620	18.04914
621	21.09451
622	18.88714
623	21.91679
624	18.91429
625	24.84211
626	27.08778
627	30.90812
628	38.01395
629	40.33679
630	27.39197
631	35.63515
632	177.2681
633	38.92549
634	60.08515
635	35.37988
636	39.31441
637	44.50273
638	47.56257
639	49.01623
640	51.35373
641	59.37814
642	67.34305
643	65.93586
644	75.0059
645	213.781
646	77.09286
647	130.9324
648	129.67391
649	119.64971
650	145.43822
651	177.716
652	208.14203
653	417.98339
654	2542.34395
655	3938.22508
656	3911.80872
657	600.52907
658	225.55745
659	186.80458
660	123.79171
661	87.19998
662	77.75262
663	144.71594
664	61.16154
665	61.67971
666	51.49342
667	48.34162
668	50.85078
669	41.91042
670	39.12995
671	39.96338
672	28.94816
673	34.2321
674	20.75133
675	35.27311
676	44.20724
677	25.94147
678	47.51075
679	20.78238
680	21.3774
681	18.54561
682	37.34681
683	13.99396
684	34.69912
685	75.09039
686	10.83919
687	9.68363
688	10.36243
689	6.81675
690	29.15335
691	6.82895
692	4.64835
693	15.86232
694	8.85932
695	17.34727
696	6.89054
697	2.70723
698	2.58097
699	9.24275
700	0.99266
701	3.37863
702	7.13103
703	2.20002
704	6.23033
705	29.27195
706	2.24888
707	1.82833
708	4.01938
709	1.21715
710	1.78352
711	14.90049
712	3.96564
713	32.21161
714	-24.2837
715	-54.44614
716	7.22709
717	3.27753
718	1.5352
719	20.01679
720	-0.71531
721	2.06872
722	0.80687
723	6.51976
724	-0.55067
725	6.29439
726	3.59689
727	10.75649
728	2.12965
729	-2.02479
730	128.8981
731	8.28392
732	5.12475
733	1.45416
734	-0.9886
735	17.65938
736	8.32931
737	14.3153
738	3.09152
739	7.51007
740	2.07976
741	81.31197
742	1.48924
743	15.42995
744	16.53868
745	1.81829
746	17.06775
747	9.99583
748	30.06984
749	7.64753
750	4.09239
751	4.70849
752	1.06067
753	3.23798
754	-2.55518
755	19.42943
756	1.81932
757	70.98139
758	37.09529
759	33.44639
760	1.57599
761	3.44181
762	163.54973
763	-0.7167
764	1.15234
765	50.90365
766	8.42239
767	40.15124
768	0.80883
769	4.82152
770	-1.80249
771	0.31569
772	4.95159
773	-1.80757
774	1.88303
775	-4.12942
776	54.50549
777	2.03649
778	4.13096
779	-1.46253
780	3.31152
781	6.31273
782	-3.35788
783	11.76257
784	12.40238
785	-2.35705
786	12.98995
787	2.92055
788	11.97725
789	-0.9622
790	1.00141
791	-3.1017
792	-1.22006
793	0.90121
794	-1.77203
795	-0.10227
796	2.49832
797	3.83058
798	-1.17269
799	3.26208
800	5.37765
801	-0.01884
802	0.63671
803	36.27082
804	-0.2402
805	-3.28714
806	3.77364
807	3.8802
808	4.56835
809	3.76305
810	15.52637
811	57.13465
812	30.7306
813	-1.04256
814	4.57291
815	3.86017
816	-0.45678
817	17.7246
818	3.11423
819	1.12786
820	-0.69769
821	90.25474
822	4.23565
823	-3.48318
824	6.74473
825	-1.39601
826	3.37313
827	-3.29783
828	3.24163
829	-1.33238
830	3.38198
831	6.15628
832	-2.6553
833	6.11262
834	-0.66465
835	8.93327
836	0.50078
837	-3.12901
838	2.48519
839	4.35092
840	33.72782
841	2.8598
842	3.85758
843	1.64983
844	9.06457
845	1.04149
846	-13.03378
847	-13.92139
848	4.19999
849	-4.08352
850	3.82862
851	-2.94042
852	-2.24271
853	-1.21187
854	-0.81066
855	-2.29292
856	12.92641
857	-1.04668
858	-1.15713
859	0.94879
860	-0.8246
861	3.25545
862	7.80311
863	0.45378
864	0.04056
865	7.1813
866	20.24697
867	5.87969
868	-0.67935
869	14.3013
870	2.60078
871	21.87595
872	0.11922
873	-2.55539
874	0.87551
875	6.17687
876	15.27327
877	-0.64658
878	-4.20632
879	18.74712
880	7.92003
881	0.09324
882	8.23342
883	-2.27009
884	10.25801
885	-4.79688
886	-20.2499
887	-3.988
888	7.52922
889	-0.61064
890	0.47577
891	13.92625
892	24.24896
893	9.42979
894	43.05842
895	6.81221
896	5.19636
897	-1.52582
898	1.40945
899	0.52589
900	15.03447
901	142.34964
902	0.04277
903	-2.06551
904	-2.10544
905	2.29738
906	4.95015
907	-4.34946
908	67.05851
909	7.48839
910	-2.32942
911	0.69211
912	-1.11099
913	0.26134
914	-1.20569
915	2.00058
916	1.46727
917	4.83303
918	1.41233
919	-1.89082
920	-7.64493
921	7.92187
922	3.44926
923	10.12561
924	4.18396
925	0.61146
926	-1.84071
927	8.06023
928	-2.69738
929	3.81118
930	-1.73781
931	-0.60683
932	3.19575
933	0.60264
934	5.86737
935	3.29162
936	-2.18532
937	1.07939
938	5.86459
939	22.43775
940	-0.20208
941	-1.86902
942	-1.02424
943	-0.50535
944	4.24269
945	5.16873
946	-6.45249
947	1.12436
948	8.32219
949	2.96881
950	23.97878
951	5.01501
952	-1.25952
953	1.17323
954	3.33107
955	0.78882
956	-0.43899
957	-0.93472
958	5.5048
959	-0.16798
960	0.47047
961	-2.78402
962	-4.30893
963	7.72957
964	-0.01385
965	0.39889
966	-4.56374
967	-3.43258
968	-1.95038
969	19.84589
970	-3.40568
971	8.54017
972	-4.70688
973	7.43896
974	1.72261
975	-1.44413
976	5.63483
977	7.15026
978	36.34298
979	1.98645
980	0.07778
981	3.5532
982	8.89951
983	-2.16971
984	31.49199
985	-3.1092
986	9.88611
987	-0.13108
988	19.3382
989	2.9376
990	-2.99012
991	0.27151
992	29.78465
993	-4.62508
994	4.33747
995	-2.08469
996	1.27551
997	12.69198
998	3.36189
999	26.56236
1000	-1.76647
