Data from 10_USB2G479881__0__15-43-08-426.txt Node

Date: Thu Feb 19 15:43:08 GMT 2026
User: Student
Spectrometer: USB2G47988
Scans to average: 10
Trigger mode: 4
Integration Time (sec): 9.000000E-1
Electric dark correction enabled: true
Boxcar width: 0
XAxis mode: Wavelengths
Number of Pixels in Spectrum: 651
>>>>>Begin Spectral Data<<<<<
350	3.352
351	1.54628
352	-0.08605
353	-2.25224
354	-2.55999
355	-0.05544
356	-0.09544
357	-1.64224
358	-2.38996
359	-3.33177
360	-0.73877
361	10.26537
362	8.55123
363	-0.69617
364	-5.71039
365	6.16086
366	13.60392
367	2.25961
368	11.55569
369	8.12266
370	-1.00879
371	11.03212
372	4.1984
373	4.347
374	2.85411
375	1.26718
376	0.78426
377	24.24044
378	3.25988
379	1.36723
380	4.26363
381	2.86951
382	9.42989
383	-4.42285
384	7.19804
385	4.07473
386	8.01755
387	3.83686
388	24.7098
389	8.90873
390	2.28726
391	4.94456
392	3.3776
393	22.95842
394	18.39881
395	1.06946
396	2.02826
397	37.02234
398	14.04391
399	7.96356
400	10.15982
401	18.54507
402	6.82894
403	5.33907
404	2.52665
405	-0.27879
406	29.05568
407	0.02692
408	6.04568
409	2.6648
410	11.69471
411	5.29302
412	4.31044
413	-0.00983
414	3.08774
415	4.23553
416	6.81969
417	4.05005
418	5.8557
419	3.80219
420	1.95794
421	8.02116
422	19.7678
423	6.87018
424	6.97531
425	109.97274
426	9.07894
427	4.27298
428	0.5436
429	36.91904
430	14.39845
431	4.15014
432	1.80352
433	8.09714
434	2.80309
435	-0.40308
436	18.33085
437	4.20013
438	22.0897
439	69.10159
440	4.70092
441	3.32233
442	8.43353
443	27.53142
444	6.1939
445	-13.98783
446	-5.41341
447	5.34583
448	4.78835
449	18.2407
450	5.96391
451	8.02506
452	5.77893
453	8.49546
454	18.21227
455	10.52613
456	15.07497
457	14.01047
458	6.17531
459	23.26901
460	9.94803
461	6.84427
462	11.79543
463	8.20438
464	10.37068
465	12.9498
466	8.98219
467	11.8605
468	16.69256
469	14.01918
470	12.86261
471	5.80917
472	5.16785
473	15.49919
474	12.16648
475	7.5729
476	10.68957
477	12.95694
478	14.45856
479	16.66426
480	6.94783
481	6.07368
482	16.32691
483	4.28796
484	5.054
485	2.11483
486	8.23939
487	9.5591
488	8.46105
489	43.55891
490	12.6826
491	5.74531
492	18.37087
493	6.92269
494	4.52469
495	9.55833
496	3.32863
497	13.48899
498	24.50969
499	5.17993
500	5.71037
501	16.54146
502	4.49069
503	5.59059
504	24.31496
505	9.26111
506	5.98521
507	4.49459
508	2.18922
509	-12.58554
510	32.36711
511	7.21397
512	8.00791
513	17.35732
514	10.08602
515	11.31121
516	12.20097
517	6.3952
518	8.90135
519	8.12106
520	30.55652
521	12.00629
522	13.57015
523	15.63286
524	15.63585
525	142.75873
526	17.48962
527	34.05283
528	14.57201
529	41.58217
530	19.36596
531	14.66781
532	14.12092
533	27.87618
534	11.03768
535	20.24759
536	46.78106
537	54.8144
538	14.17551
539	15.27427
540	16.9963
541	13.34044
542	12.83009
543	16.94431
544	15.66006
545	17.92003
546	100.4279
547	13.99021
548	18.4554
549	24.26653
550	21.63913
551	11.1518
552	12.241
553	10.10035
554	10.04699
555	26.61497
556	19.09873
557	11.59348
558	22.07042
559	12.78619
560	9.00575
561	14.35317
562	9.30525
563	16.4361
564	13.21216
565	10.89123
566	13.72464
567	10.70745
568	10.33064
569	14.50833
570	8.58822
571	9.86491
572	9.71975
573	7.37088
574	6.35145
575	10.82161
576	8.6777
577	13.85415
578	9.23073
579	6.56166
580	12.85922
581	7.76683
582	46.23291
583	13.13167
584	5.08374
585	13.33111
586	9.35096
587	12.5839
588	6.96532
589	7.13825
590	14.63206
591	10.58535
592	13.02055
593	7.87558
594	16.77886
595	10.74849
596	14.1879
597	38.51267
598	31.94178
599	10.98561
600	29.37678
601	16.73512
602	38.48189
603	16.38147
604	22.30775
605	41.27713
606	17.89881
607	15.21527
608	28.61849
609	26.42456
610	24.49643
611	20.34162
612	22.55748
613	25.40422
614	148.58913
615	34.86095
616	22.18416
617	40.01976
618	29.90797
619	25.64038
620	28.86988
621	29.56925
622	32.97823
623	31.41839
624	32.55851
625	31.47384
626	40.73322
627	56.16331
628	55.08976
629	69.54642
630	62.15868
631	62.88328
632	205.37079
633	78.20963
634	101.33729
635	78.98895
636	86.28946
637	117.84174
638	89.51604
639	88.30923
640	89.46447
641	128.82233
642	128.51791
643	155.29627
644	160.83138
645	257.06365
646	179.15138
647	331.2385
648	304.7844
649	215.45612
650	285.98987
651	357.7129
652	618.67098
653	3814.95525
654	3915.35489
655	3915.01255
656	3795.95898
657	351.42308
658	219.48667
659	243.24672
660	159.19662
661	126.71357
662	108.31657
663	179.49988
664	89.63186
665	91.14905
666	76.60373
667	110.19209
668	69.46477
669	71.32821
670	66.10595
671	74.56824
672	62.52236
673	55.71475
674	59.95725
675	54.40467
676	63.03065
677	40.08587
678	54.01171
679	31.37082
680	36.32818
681	26.63507
682	53.66671
683	22.78448
684	42.93032
685	86.1104
686	24.13845
687	20.94791
688	19.33442
689	18.15474
690	38.59093
691	17.37364
692	16.35298
693	20.8917
694	17.26532
695	22.69353
696	12.00229
697	11.30331
698	10.32217
699	15.24849
700	12.58122
701	11.44647
702	13.31943
703	8.54982
704	10.956
705	35.38403
706	9.72369
707	7.52737
708	10.92352
709	6.24162
710	5.19813
711	15.10182
712	7.32847
713	37.09332
714	-14.1262
715	-44.352
716	12.31929
717	6.76109
718	6.08439
719	18.82329
720	4.2271
721	6.28211
722	5.47089
723	4.08857
724	2.50802
725	4.00265
726	7.95759
727	13.36514
728	5.18396
729	2.89749
730	15.43128
731	6.64802
732	7.16203
733	4.44827
734	4.06093
735	19.60649
736	14.6674
737	11.67574
738	2.9645
739	3.57489
740	3.33428
741	77.77843
742	2.06102
743	16.5407
744	16.62231
745	2.54084
746	21.56912
747	8.22155
748	34.46281
749	9.72309
750	6.85113
751	8.95604
752	3.55855
753	2.13292
754	0.46886
755	16.93651
756	5.77536
757	68.77188
758	32.50362
759	29.14703
760	2.3162
761	3.94259
762	162.34486
763	-1.26083
764	5.31488
765	50.07475
766	6.54594
767	34.23003
768	1.71662
769	5.2587
770	0.5142
771	0.73273
772	4.30449
773	-0.83501
774	1.87402
775	-5.01133
776	51.994
777	1.20336
778	5.13131
779	-1.43726
780	5.63166
781	2.94863
782	-2.97304
783	7.79636
784	15.05099
785	-2.51541
786	16.38334
787	0.55806
788	6.01916
789	-0.48943
790	2.16039
791	-1.39248
792	-1.08765
793	-0.81689
794	-2.34168
795	3.39078
796	1.35996
797	4.93782
798	-1.89505
799	2.29072
800	7.16923
801	0.48976
802	1.66661
803	35.8379
804	-1.14332
805	-1.9555
806	3.32242
807	3.71495
808	3.08083
809	4.58502
810	15.88725
811	60.66537
812	24.23762
813	-0.60452
814	5.47358
815	4.8393
816	-2.30558
817	17.87102
818	3.94958
819	0.89247
820	-1.17316
821	82.646
822	1.56382
823	-3.00668
824	8.28213
825	0.37557
826	1.62771
827	-1.45376
828	5.79231
829	-1.92193
830	5.53038
831	4.99924
832	-2.19796
833	8.93339
834	-2.80799
835	12.37078
836	-0.7619
837	-2.4969
838	0.00853
839	5.22562
840	38.78756
841	4.41659
842	-0.26771
843	2.65293
844	7.00697
845	-2.34738
846	-11.64426
847	-18.28017
848	2.28954
849	-3.06245
850	2.20858
851	-2.78064
852	-3.10249
853	-1.33266
854	-2.14398
855	-1.96431
856	11.16066
857	-1.53996
858	-2.1033
859	0.866
860	-1.21568
861	3.17241
862	2.82473
863	-2.30911
864	-2.52829
865	4.36058
866	19.90497
867	4.24996
868	-0.63728
869	12.23754
870	3.36388
871	15.31698
872	-4.69762
873	-2.84073
874	1.67633
875	3.86281
876	33.11022
877	-1.30361
878	-2.42775
879	18.11827
880	4.82469
881	-1.19166
882	4.01348
883	-2.44388
884	8.35075
885	-4.20545
886	-23.94924
887	-5.72052
888	5.18979
889	-0.65389
890	0.78869
891	69.22889
892	46.65055
893	10.90506
894	41.08605
895	5.90382
896	0.67958
897	-1.56173
898	1.38458
899	1.2698
900	11.49805
901	124.03524
902	-1.64836
903	-2.94065
904	-2.61326
905	-1.33912
906	4.29223
907	-3.23989
908	67.53755
909	4.82702
910	-3.28634
911	2.02758
912	-1.43698
913	-1.95942
914	0.98386
915	0.94952
916	1.25932
917	3.54787
918	0.61264
919	0.95808
920	-8.80574
921	2.26012
922	-4.48927
923	8.54597
924	2.59857
925	0.78002
926	-2.91859
927	8.36967
928	-2.95581
929	4.88717
930	-2.3873
931	-1.87903
932	1.90179
933	0.06868
934	-0.27932
935	28.77948
936	-1.55543
937	0.25532
938	2.48378
939	25.96361
940	-4.56472
941	-1.07004
942	0.66129
943	-0.37898
944	2.28314
945	-1.28259
946	-6.57003
947	12.45121
948	9.80589
949	-0.86333
950	26.61025
951	2.15795
952	-1.15373
953	1.56219
954	2.14906
955	0.2286
956	-0.37501
957	-1.99108
958	5.70822
959	0.42707
960	-0.73391
961	-2.68913
962	-2.28412
963	4.4945
964	-1.49478
965	-1.26505
966	-4.14172
967	-4.1472
968	-1.13283
969	15.20402
970	-3.22368
971	4.58225
972	-4.29121
973	6.74067
974	0.37154
975	-2.00929
976	2.12422
977	7.85289
978	86.50098
979	0.84873
980	-0.6599
981	0.70655
982	7.91354
983	-1.75852
984	27.79872
985	-3.60401
986	5.05874
987	1.77199
988	20.25169
989	1.08652
990	-2.44801
991	-2.15035
992	29.29777
993	-3.87186
994	1.4128
995	-1.75164
996	-0.40353
997	5.268
998	-0.06163
999	27.19383
1000	-3.07073
