Data from 10_USB2G479881__0__15-37-13-990.txt Node

Date: Wed Feb 25 15:37:13 GMT 2026
User: Student
Spectrometer: USB2G47988
Scans to average: 500
Trigger mode: 4
Integration Time (sec): 1.500000E-2
Electric dark correction enabled: true
Boxcar width: 0
XAxis mode: Wavelengths
Number of Pixels in Spectrum: 651
>>>>>Begin Spectral Data<<<<<
350	-0.37329
351	-0.21227
352	0.10644
353	0.18718
354	0.29194
355	0.52107
356	0.67538
357	0.79176
358	0.8495
359	0.88926
360	1.07209
361	1.29854
362	1.33634
363	1.5453
364	1.57183
365	1.93121
366	1.96781
367	2.2035
368	2.42275
369	2.4211
370	2.20632
371	2.57829
372	2.54416
373	2.59284
374	2.69327
375	2.73661
376	2.89888
377	3.53791
378	3.43483
379	3.2703
380	3.11969
381	3.52197
382	3.75647
383	3.37859
384	3.89496
385	3.61822
386	4.33225
387	4.09058
388	4.17821
389	4.28784
390	3.83068
391	4.32703
392	4.27218
393	4.74947
394	4.81797
395	4.4414
396	4.50804
397	4.72874
398	5.24306
399	4.98533
400	5.04012
401	4.9826
402	5.13777
403	5.1296
404	5.07902
405	4.94035
406	5.69161
407	5.11987
408	5.33684
409	5.27994
410	5.46585
411	5.38711
412	5.55422
413	5.34906
414	5.30069
415	5.49719
416	5.40865
417	5.54242
418	5.53315
419	5.60412
420	5.72022
421	5.78101
422	5.83715
423	5.65029
424	5.86969
425	7.09442
426	6.11527
427	5.8721
428	5.9027
429	6.4794
430	6.19208
431	6.43494
432	5.94899
433	6.04873
434	5.99625
435	5.87103
436	6.43229
437	5.90329
438	6.17278
439	6.6159
440	6.27402
441	5.8631
442	6.1988
443	6.32587
444	6.12263
445	5.54445
446	9.38157
447	6.10921
448	6.37185
449	6.21543
450	6.16331
451	5.92775
452	6.06595
453	6.05445
454	6.54837
455	6.30041
456	6.19473
457	6.24659
458	6.06627
459	6.37888
460	6.16999
461	6.16821
462	6.26282
463	6.12197
464	6.01475
465	6.09756
466	5.89854
467	6.11459
468	6.54119
469	6.11846
470	6.16855
471	5.86033
472	5.96217
473	5.72411
474	6.08324
475	5.7418
476	5.85588
477	5.96495
478	5.8782
479	6.01366
480	5.74534
481	6.2913
482	5.69721
483	5.45551
484	5.50769
485	5.42663
486	5.70005
487	5.48791
488	5.72028
489	6.07232
490	5.60042
491	5.52607
492	5.79175
493	5.37833
494	5.49665
495	5.49955
496	5.44862
497	5.48601
498	5.87369
499	5.36572
500	5.27154
501	5.54636
502	5.1681
503	5.31586
504	5.72684
505	5.20862
506	5.2977
507	5.222
508	5.25753
509	6.93866
510	5.71493
511	4.97196
512	5.15028
513	5.29326
514	5.02487
515	5.13278
516	5.1164
517	5.0952
518	5.30324
519	5.03443
520	5.31769
521	5.10676
522	5.30845
523	5.1252
524	4.98938
525	6.53528
526	5.41547
527	5.21777
528	4.92822
529	5.40557
530	5.12702
531	4.95389
532	4.87727
533	5.09378
534	4.72158
535	5.00473
536	5.08843
537	5.91964
538	4.97391
539	4.86921
540	4.60158
541	4.83586
542	4.87652
543	4.65422
544	4.7339
545	4.87877
546	5.50028
547	4.53178
548	4.54099
549	4.51181
550	4.7547
551	4.56893
552	4.50273
553	4.34254
554	4.38902
555	4.74211
556	4.45505
557	4.33921
558	4.72113
559	4.51646
560	4.31988
561	4.20828
562	4.23068
563	4.41501
564	4.2935
565	4.11746
566	4.27177
567	4.15995
568	4.02648
569	4.2882
570	3.92612
571	4.10979
572	4.02759
573	3.96651
574	4.00196
575	3.96792
576	4.00729
577	3.92788
578	3.7646
579	3.83393
580	3.81654
581	3.98826
582	4.14103
583	3.83152
584	3.77669
585	4.08236
586	3.68559
587	3.85492
588	3.60388
589	3.4691
590	3.67134
591	3.65643
592	3.85598
593	3.81427
594	4.08748
595	3.55119
596	3.66055
597	4.22355
598	4.23348
599	3.55809
600	3.94116
601	4.09048
602	4.19418
603	3.84049
604	3.94349
605	4.44926
606	3.79137
607	3.82552
608	3.93911
609	3.99731
610	4.01496
611	3.95231
612	3.82782
613	3.96692
614	5.241
615	4.43203
616	4.12171
617	4.17982
618	4.42771
619	4.39004
620	4.36811
621	4.53214
622	4.40597
623	4.69937
624	4.65865
625	4.85773
626	5.0911
627	5.29996
628	5.69156
629	5.88137
630	5.78573
631	6.1411
632	7.55228
633	6.61905
634	6.83029
635	7.41432
636	7.55551
637	7.59686
638	8.43221
639	9.22144
640	10.41198
641	10.60546
642	10.97266
643	11.00711
644	12.70944
645	16.15982
646	17.52546
647	18.17434
648	21.14944
649	24.41835
650	26.69707
651	30.2013
652	39.64056
653	74.50923
654	218.51284
655	3545.96268
656	1593.96465
657	215.20684
658	55.12836
659	32.23122
660	21.23502
661	17.3111
662	14.31822
663	12.68744
664	11.74681
665	10.00641
666	8.66353
667	8.60448
668	7.03737
669	6.63912
670	6.16093
671	5.82909
672	5.43906
673	5.67096
674	5.31113
675	5.61318
676	5.11041
677	4.8075
678	4.8465
679	4.46683
680	3.91511
681	3.83262
682	3.94258
683	3.75344
684	3.6929
685	4.18591
686	3.33782
687	3.14098
688	3.11745
689	3.06648
690	3.31191
691	3.16899
692	3.00423
693	3.49888
694	3.0023
695	3.2252
696	2.75671
697	2.97033
698	2.81597
699	2.89682
700	2.82067
701	2.58939
702	2.65462
703	2.68123
704	2.74977
705	2.98074
706	2.63815
707	2.60891
708	2.4986
709	2.4596
710	2.54467
711	2.83515
712	2.57225
713	3.00524
714	2.54426
715	6.13229
716	2.55996
717	2.52558
718	2.34584
719	2.7592
720	2.26087
721	2.34502
722	2.42262
723	2.53059
724	2.34865
725	2.61009
726	2.43691
727	2.60383
728	2.37142
729	2.29944
730	3.24054
731	2.60295
732	2.34337
733	2.4811
734	2.10841
735	2.44087
736	2.45485
737	2.77773
738	2.35306
739	2.58935
740	2.40541
741	3.42493
742	2.48769
743	2.6081
744	2.57135
745	2.26251
746	2.51543
747	2.47805
748	2.79309
749	2.3867
750	2.36969
751	2.06422
752	2.32436
753	2.28648
754	2.06329
755	2.44544
756	2.21283
757	2.74919
758	2.97474
759	2.92259
760	2.18606
761	2.3404
762	2.90067
763	2.23166
764	2.25244
765	2.75455
766	2.32224
767	2.97901
768	2.18359
769	2.20887
770	2.13551
771	2.40996
772	2.1418
773	2.10227
774	2.27597
775	2.07438
776	2.99138
777	2.31435
778	2.21057
779	2.16411
780	1.99577
781	2.33267
782	2.02853
783	2.47826
784	2.16827
785	2.05115
786	2.18249
787	2.06841
788	2.99238
789	2.01773
790	1.9266
791	1.93687
792	2.08602
793	2.10081
794	1.97453
795	2.08559
796	2.03589
797	2.07654
798	2.03818
799	2.33376
800	2.19749
801	2.07877
802	2.00083
803	2.6542
804	2.14481
805	2.13276
806	2.08152
807	2.09883
808	2.13603
809	2.08156
810	2.43384
811	2.51483
812	2.8529
813	2.08426
814	2.08922
815	2.14782
816	2.15757
817	2.19075
818	1.99583
819	1.95714
820	2.26882
821	2.85705
822	2.53004
823	2.04052
824	1.94837
825	2.12066
826	1.93936
827	2.03398
828	1.99105
829	1.91852
830	1.94282
831	1.83274
832	1.98859
833	2.17846
834	2.11002
835	2.08902
836	2.05939
837	1.88238
838	1.87762
839	2.01252
840	2.23504
841	1.95147
842	2.14154
843	2.02602
844	1.96094
845	1.88695
846	1.828
847	2.35366
848	2.08868
849	1.83398
850	2.17711
851	1.93591
852	1.9508
853	1.98358
854	1.86186
855	1.76786
856	2.28034
857	1.99949
858	1.94829
859	2.02114
860	1.94609
861	1.97755
862	2.44773
863	2.01626
864	1.90331
865	2.30518
866	2.18039
867	2.21985
868	2.14637
869	2.33757
870	2.1425
871	2.70106
872	3.38379
873	1.96888
874	1.90459
875	1.89423
876	2.34483
877	2.05754
878	1.8359
879	2.15784
880	2.08714
881	2.14864
882	2.11273
883	1.62455
884	2.15452
885	1.90566
886	1.9829
887	2.83252
888	2.17171
889	1.8332
890	1.89151
891	2.61685
892	3.42846
893	2.19026
894	2.7737
895	2.14243
896	2.17605
897	1.95896
898	1.88968
899	1.85048
900	2.14959
901	4.19959
902	2.0905
903	2.03326
904	1.96986
905	2.29418
906	2.03209
907	1.9579
908	2.74581
909	2.11963
910	1.92209
911	1.94057
912	1.97632
913	2.04796
914	1.95157
915	1.904
916	1.99593
917	2.14783
918	1.9121
919	2.03032
920	1.6976
921	2.40359
922	2.50566
923	2.1881
924	2.19817
925	2.01942
926	1.79965
927	1.92221
928	1.81915
929	1.8842
930	1.9652
931	1.86143
932	1.96464
933	1.90022
934	2.03854
935	2.05503
936	2.07231
937	1.79597
938	2.20338
939	2.30768
940	2.05907
941	1.93705
942	1.86198
943	2.07365
944	2.12391
945	3.1555
946	2.01295
947	2.34741
948	2.4186
949	2.26564
950	2.25772
951	2.1621
952	1.92968
953	1.94327
954	1.81865
955	2.10199
956	1.94097
957	1.86423
958	2.04985
959	1.88265
960	2.11462
961	1.99532
962	1.86592
963	2.17303
964	1.82141
965	2.00719
966	1.88462
967	1.83688
968	1.92521
969	2.61322
970	1.91807
971	2.06421
972	1.7875
973	2.14982
974	1.95486
975	1.87369
976	1.93915
977	2.06092
978	3.40909
979	2.00599
980	2.05679
981	1.86212
982	2.04409
983	1.90265
984	2.75295
985	1.90708
986	2.30336
987	1.9498
988	2.15106
989	2.10852
990	1.85849
991	1.98533
992	2.4949
993	2.01345
994	2.2058
995	1.99268
996	2.14957
997	2.32148
998	2.06227
999	2.37417
1000	2.15622
