Data from 13_USB2G479881__0__15-39-26-854.txt Node

Date: Wed Feb 25 15:39:26 GMT 2026
User: Student
Spectrometer: USB2G47988
Scans to average: 500
Trigger mode: 4
Integration Time (sec): 1.500000E-2
Electric dark correction enabled: true
Boxcar width: 0
XAxis mode: Wavelengths
Number of Pixels in Spectrum: 651
>>>>>Begin Spectral Data<<<<<
350	-0.34185
351	-0.03532
352	0.0837
353	0.04895
354	0.24452
355	0.48902
356	0.56244
357	0.85165
358	0.83119
359	0.89249
360	1.10369
361	1.33457
362	1.43179
363	1.47802
364	1.37675
365	2.09996
366	1.87267
367	2.07574
368	2.33301
369	2.35677
370	2.54166
371	2.60303
372	2.60179
373	2.63021
374	2.52867
375	2.81657
376	2.82959
377	3.54323
378	3.20984
379	3.25931
380	3.26001
381	3.3459
382	3.73637
383	3.62888
384	3.91895
385	3.85139
386	4.22467
387	4.0205
388	4.23583
389	4.48524
390	4.12958
391	4.14597
392	4.17607
393	4.71665
394	4.80726
395	4.39346
396	4.53301
397	5.02717
398	5.4626
399	5.01881
400	5.02554
401	5.18028
402	4.99287
403	4.90185
404	5.0192
405	4.82269
406	5.69834
407	5.09555
408	5.4336
409	5.16313
410	5.54407
411	5.59875
412	5.58997
413	5.21618
414	5.34328
415	5.57023
416	5.59085
417	5.70016
418	5.44861
419	5.65517
420	5.76699
421	5.89469
422	6.1469
423	5.8811
424	5.7262
425	6.98175
426	6.10446
427	5.74104
428	5.76509
429	6.29277
430	6.20867
431	6.41924
432	5.96164
433	6.0113
434	6.14678
435	5.84625
436	6.63143
437	6.21257
438	6.14179
439	6.35935
440	6.59043
441	5.92751
442	6.0827
443	6.17562
444	5.89344
445	5.62098
446	9.26676
447	6.27565
448	6.07863
449	6.32192
450	6.09055
451	6.19609
452	6.01139
453	6.25651
454	6.69099
455	6.09247
456	6.24609
457	6.36672
458	6.215
459	6.29103
460	6.11552
461	6.05157
462	6.00224
463	6.08698
464	6.14188
465	6.15143
466	6.18219
467	6.36117
468	6.53927
469	6.22678
470	6.03263
471	5.91428
472	6.02582
473	5.91121
474	5.99088
475	6.04979
476	6.04959
477	6.02593
478	6.00004
479	5.90771
480	5.77548
481	6.08638
482	5.75645
483	5.80053
484	5.58861
485	5.74613
486	5.8753
487	5.83597
488	5.78917
489	6.26338
490	5.75838
491	5.60457
492	6.01142
493	5.53056
494	5.58457
495	5.44996
496	5.41905
497	5.69153
498	5.67437
499	5.46311
500	5.44016
501	5.70951
502	5.51036
503	5.37613
504	5.66655
505	5.56537
506	5.15459
507	5.33203
508	5.551
509	7.26512
510	5.98098
511	5.25974
512	4.97111
513	5.61313
514	5.27252
515	5.22292
516	5.08712
517	5.08256
518	5.42284
519	5.25409
520	5.4612
521	5.28401
522	5.49172
523	5.29272
524	5.2383
525	6.67268
526	5.34502
527	5.49527
528	5.08286
529	5.33639
530	4.93062
531	4.99483
532	5.12039
533	4.88938
534	5.08324
535	5.36248
536	5.46512
537	5.9626
538	4.97871
539	4.9264
540	4.70296
541	4.76572
542	4.7965
543	4.93541
544	4.8126
545	4.71962
546	5.56013
547	4.82838
548	4.58278
549	4.63378
550	4.74768
551	4.57392
552	4.63118
553	4.40027
554	4.45811
555	4.58257
556	4.54876
557	4.4758
558	4.80542
559	4.52329
560	4.15081
561	4.1754
562	4.18191
563	4.33005
564	4.22152
565	4.12193
566	4.15203
567	4.27818
568	4.05892
569	4.38684
570	4.05206
571	4.1154
572	4.12292
573	4.1197
574	3.80384
575	3.95102
576	3.95107
577	3.94109
578	3.9285
579	3.83521
580	3.93834
581	3.96576
582	4.12823
583	3.79154
584	3.92931
585	3.91053
586	3.80715
587	3.85557
588	3.60999
589	3.82512
590	3.97591
591	3.68898
592	3.75463
593	3.6396
594	4.02742
595	3.6557
596	4.08438
597	4.08413
598	4.22762
599	3.7101
600	3.78298
601	4.06322
602	4.25011
603	3.85559
604	3.76936
605	4.22705
606	3.90732
607	3.59958
608	3.86489
609	3.97067
610	3.81785
611	3.77064
612	3.59156
613	3.77703
614	5.11598
615	4.22172
616	3.87031
617	3.93168
618	4.06673
619	3.99288
620	4.14
621	4.08413
622	4.1901
623	4.30108
624	4.053
625	4.17527
626	4.43883
627	4.57382
628	4.96266
629	5.0451
630	4.70974
631	4.75389
632	6.19443
633	5.26299
634	5.81042
635	5.62115
636	5.66684
637	5.99788
638	6.49958
639	6.75031
640	7.98793
641	7.74639
642	8.35515
643	8.42073
644	9.51996
645	11.42486
646	12.38198
647	12.65991
648	14.36203
649	15.95104
650	18.10441
651	21.99622
652	29.40609
653	56.14108
654	156.11566
655	2898.17929
656	1430.91485
657	237.84946
658	37.34835
659	22.82947
660	16.29218
661	12.60737
662	9.94069
663	9.21909
664	8.00029
665	7.33786
666	6.45149
667	6.32059
668	5.36336
669	5.04616
670	4.96079
671	4.40269
672	4.34948
673	4.25367
674	4.15493
675	4.71642
676	4.08249
677	3.94426
678	4.09095
679	3.56757
680	3.44554
681	3.4984
682	3.53108
683	3.48224
684	3.39122
685	3.82487
686	3.20861
687	3.00709
688	2.90459
689	2.83243
690	3.2967
691	2.79446
692	2.87981
693	2.99346
694	2.78486
695	3.07527
696	2.83685
697	2.79435
698	2.4782
699	2.62215
700	2.64581
701	2.6687
702	2.66576
703	2.54571
704	2.4994
705	3.04703
706	2.43762
707	2.56445
708	2.47384
709	2.36752
710	2.37546
711	2.79187
712	2.49777
713	2.95274
714	2.36946
715	5.95305
716	2.57081
717	2.50732
718	2.53419
719	2.71758
720	2.32789
721	2.32112
722	2.36615
723	2.52369
724	2.20341
725	2.44555
726	2.36954
727	2.53218
728	2.23079
729	2.26263
730	3.351
731	2.72131
732	2.52532
733	2.46731
734	2.1365
735	2.64647
736	2.54756
737	2.97097
738	2.39027
739	2.58396
740	2.33919
741	3.30845
742	2.3379
743	2.81401
744	2.70763
745	2.28944
746	2.47959
747	2.63235
748	2.81521
749	2.37754
750	2.42661
751	2.43033
752	2.23239
753	2.18071
754	2.21964
755	2.44762
756	2.11331
757	2.87193
758	3.15477
759	2.75402
760	2.17628
761	2.32178
762	3.86967
763	2.34316
764	2.13776
765	2.52318
766	2.31985
767	3.0426
768	2.33275
769	2.19198
770	2.18548
771	2.17607
772	2.41485
773	2.11414
774	2.26269
775	2.06543
776	3.10426
777	2.41519
778	2.26865
779	2.18174
780	2.22995
781	2.27522
782	1.94947
783	2.48071
784	2.29274
785	1.95716
786	2.49899
787	2.08253
788	3.23555
789	2.20209
790	2.20364
791	1.99774
792	2.21763
793	2.20947
794	2.12897
795	2.01181
796	2.11048
797	2.24131
798	2.11397
799	2.13608
800	1.98179
801	2.17832
802	2.13607
803	2.59572
804	2.20318
805	1.95115
806	2.11147
807	2.15329
808	2.28413
809	2.20703
810	2.46963
811	2.8344
812	2.7939
813	1.91634
814	2.07399
815	2.16972
816	2.0154
817	2.25093
818	2.22749
819	1.9609
820	2.05095
821	3.07767
822	2.3893
823	2.02402
824	2.19479
825	2.23128
826	2.36847
827	2.13403
828	2.10066
829	1.99416
830	2.25397
831	2.22387
832	2.02946
833	2.05764
834	1.84972
835	2.16204
836	2.02313
837	1.9354
838	2.18283
839	2.18487
840	2.28061
841	2.17738
842	2.39491
843	2.0537
844	2.25893
845	2.11008
846	1.76934
847	2.49129
848	1.95397
849	1.77509
850	2.11777
851	2.01335
852	2.0654
853	2.01014
854	1.92752
855	1.94811
856	2.47421
857	2.1056
858	1.98847
859	2.11637
860	2.07766
861	1.90064
862	2.37269
863	2.24228
864	2.01587
865	2.27703
866	2.28439
867	2.21576
868	1.89135
869	2.40043
870	2.09082
871	2.75105
872	3.57119
873	2.01586
874	2.06107
875	2.05354
876	2.50441
877	2.07845
878	2.02166
879	2.24833
880	2.04089
881	2.08476
882	2.19551
883	1.89291
884	2.20226
885	1.96408
886	2.18305
887	2.93781
888	2.20617
889	2.2479
890	2.20472
891	2.66115
892	3.72501
893	2.34435
894	2.69425
895	2.28605
896	2.12904
897	1.92011
898	2.15587
899	2.17245
900	2.41498
901	4.06637
902	2.28603
903	1.96023
904	2.12099
905	2.15351
906	2.23734
907	2.02868
908	2.66475
909	2.24817
910	1.926
911	2.08825
912	1.81003
913	2.08765
914	2.03857
915	1.97066
916	1.80152
917	2.12807
918	2.06793
919	2.08906
920	1.78335
921	2.42488
922	2.5956
923	2.22838
924	2.29386
925	2.13394
926	2.06676
927	1.94021
928	1.95723
929	2.0833
930	1.97841
931	2.14794
932	1.93145
933	2.14616
934	2.3507
935	2.11255
936	1.82293
937	2.06345
938	2.25727
939	2.21055
940	1.93243
941	2.21925
942	2.09705
943	2.11282
944	2.07564
945	3.19405
946	2.0926
947	2.64636
948	2.41066
949	2.12916
950	2.35678
951	2.2132
952	1.63416
953	1.97743
954	2.15531
955	1.9338
956	1.96332
957	1.90848
958	2.06261
959	1.9311
960	1.97889
961	1.91608
962	1.97377
963	2.11545
964	1.97446
965	1.8443
966	1.9367
967	1.83921
968	1.93201
969	2.48591
970	1.90777
971	2.10808
972	1.97203
973	2.06765
974	2.09045
975	1.88232
976	2.23133
977	2.23987
978	3.37802
979	2.20983
980	2.12546
981	2.07652
982	2.1278
983	1.89705
984	2.60561
985	1.9022
986	2.38711
987	1.86868
988	2.29697
989	2.06573
990	2.10025
991	1.85614
992	2.60567
993	2.19647
994	2.42708
995	1.85197
996	1.92701
997	2.42752
998	2.6628
999	2.5414
1000	1.89842
