Data from 20_USB2G479881__2__15-45-01-445.txt Node

Date: Wed Feb 25 15:45:01 GMT 2026
User: Student
Spectrometer: USB2G47988
Scans to average: 500
Trigger mode: 4
Integration Time (sec): 1.500000E-2
Electric dark correction enabled: true
Boxcar width: 0
XAxis mode: Wavelengths
Number of Pixels in Spectrum: 651
>>>>>Begin Spectral Data<<<<<
350	-0.42739
351	-0.14232
352	0.18375
353	-0.0162
354	0.40217
355	0.46517
356	0.37763
357	0.45904
358	0.83469
359	0.96959
360	1.03006
361	1.38893
362	1.51056
363	1.34049
364	1.39009
365	1.97749
366	1.86797
367	2.07818
368	2.55017
369	2.30729
370	2.15346
371	2.329
372	2.50589
373	2.41883
374	2.69431
375	2.97369
376	2.65413
377	3.35792
378	3.2464
379	3.04203
380	3.39196
381	3.45517
382	3.76017
383	3.5954
384	3.99061
385	3.90414
386	4.07017
387	4.22282
388	4.34739
389	4.26709
390	3.91369
391	4.00074
392	4.23479
393	4.68435
394	4.67334
395	4.37958
396	4.66597
397	4.87634
398	5.28258
399	4.89473
400	4.9672
401	5.09042
402	4.99139
403	5.02177
404	4.90219
405	4.88298
406	5.48947
407	5.13443
408	5.45739
409	5.33483
410	5.56772
411	5.32328
412	5.18438
413	5.35769
414	5.4445
415	5.4273
416	5.4696
417	5.61627
418	5.68965
419	5.61926
420	5.67064
421	5.88029
422	6.01714
423	5.53227
424	5.8573
425	7.09386
426	6.05523
427	5.78786
428	5.75362
429	6.27688
430	6.1402
431	6.35678
432	6.11315
433	6.39328
434	6.03081
435	5.88928
436	6.52225
437	6.06469
438	6.12849
439	6.732
440	6.22516
441	5.93585
442	6.10073
443	6.32248
444	6.13789
445	5.5431
446	9.39223
447	6.38898
448	6.24317
449	6.25108
450	6.10899
451	6.169
452	6.03089
453	6.20705
454	6.39231
455	6.16128
456	6.49063
457	6.50685
458	6.22194
459	6.45441
460	6.29715
461	6.30639
462	6.14268
463	6.09366
464	6.02629
465	5.94787
466	6.16413
467	6.03231
468	6.59353
469	6.16651
470	5.96755
471	5.99246
472	6.07037
473	6.00456
474	6.06962
475	5.89993
476	6.05982
477	6.1517
478	6.05521
479	6.0637
480	5.90679
481	6.18699
482	5.95109
483	5.7766
484	5.60628
485	5.62547
486	5.94245
487	5.56654
488	5.57856
489	6.17206
490	5.72073
491	5.7095
492	5.90533
493	5.56125
494	5.36226
495	5.49242
496	5.49491
497	5.75828
498	5.84938
499	5.46959
500	5.40494
501	5.4692
502	5.43619
503	5.30868
504	5.41983
505	5.3739
506	5.04853
507	5.26737
508	5.28063
509	7.13626
510	5.6577
511	4.99424
512	5.20068
513	5.48232
514	5.10123
515	5.3653
516	5.24521
517	5.06377
518	5.20938
519	5.15009
520	5.50874
521	5.18035
522	5.27774
523	4.92818
524	5.21698
525	6.84129
526	5.49367
527	5.51522
528	5.21488
529	5.75088
530	5.15838
531	4.97096
532	4.84628
533	5.21151
534	5.10844
535	5.44175
536	5.53234
537	6.2758
538	5.02133
539	4.83061
540	4.81201
541	4.74411
542	4.64314
543	4.83369
544	4.75117
545	4.7265
546	5.54394
547	4.68812
548	4.80912
549	4.78387
550	4.6029
551	4.75614
552	4.58809
553	4.45364
554	4.59505
555	4.60606
556	4.55082
557	4.37162
558	4.64267
559	4.5414
560	4.24135
561	4.32908
562	4.19913
563	4.38598
564	4.29145
565	4.03003
566	4.16244
567	4.1519
568	4.00021
569	4.34607
570	4.01692
571	3.95537
572	3.93898
573	3.94255
574	3.82128
575	3.94849
576	3.75826
577	3.80485
578	3.69322
579	3.84502
580	3.91696
581	3.81349
582	4.18136
583	3.78255
584	3.53736
585	4.00111
586	3.6669
587	3.54134
588	3.49837
589	3.58549
590	3.9316
591	3.57697
592	3.52815
593	3.67952
594	4.05701
595	3.66942
596	3.66197
597	4.07223
598	4.01444
599	3.57136
600	3.5699
601	4.06156
602	4.14619
603	3.56236
604	3.85082
605	4.18768
606	3.57725
607	3.46263
608	3.60857
609	3.51475
610	3.63236
611	3.44544
612	3.40765
613	3.61552
614	4.86717
615	3.91616
616	3.53826
617	3.58756
618	3.6265
619	3.48377
620	3.61517
621	3.48465
622	3.57621
623	3.5214
624	3.58371
625	3.74027
626	3.9098
627	3.95646
628	4.21715
629	4.23144
630	3.94931
631	4.12836
632	5.19902
633	4.07934
634	4.15454
635	3.9964
636	4.3354
637	4.18344
638	4.51821
639	4.58179
640	5.19658
641	4.93053
642	5.2172
643	5.28662
644	5.77973
645	7.43075
646	7.73494
647	7.10038
648	7.99461
649	8.77809
650	9.60383
651	11.14871
652	14.3584
653	26.96528
654	68.58902
655	1582.54454
656	328.45583
657	50.59866
658	20.41503
659	12.57323
660	8.90356
661	6.90139
662	6.03569
663	5.94578
664	5.15162
665	4.65408
666	4.12573
667	4.27691
668	4.09547
669	3.6287
670	3.39259
671	3.21303
672	3.23186
673	3.08814
674	3.32337
675	3.8375
676	3.44514
677	3.35072
678	3.26149
679	3.14907
680	2.96219
681	3.02492
682	2.86051
683	2.93104
684	2.87212
685	3.49979
686	2.68153
687	2.64844
688	2.61039
689	2.42978
690	2.88106
691	2.61871
692	2.48651
693	2.75101
694	2.64005
695	2.73763
696	2.39684
697	2.52992
698	2.38193
699	2.42302
700	2.5189
701	2.27774
702	2.42821
703	2.53697
704	2.38766
705	2.70192
706	2.40535
707	2.18764
708	2.19075
709	2.05492
710	2.22764
711	2.73236
712	2.52854
713	2.78827
714	2.04783
715	6.23267
716	2.33049
717	2.51503
718	2.19829
719	2.7501
720	2.26119
721	2.09859
722	2.28503
723	2.64568
724	2.27257
725	2.47051
726	2.19313
727	2.28808
728	2.24284
729	2.18653
730	3.39333
731	2.68926
732	2.43562
733	2.05759
734	2.14071
735	2.45766
736	2.27127
737	2.74267
738	2.52782
739	2.65638
740	2.17533
741	3.25544
742	2.26623
743	2.5966
744	2.28084
745	2.18353
746	2.40679
747	2.4155
748	2.65506
749	2.43334
750	2.2446
751	2.20156
752	2.12044
753	2.17526
754	2.21431
755	2.39103
756	1.90717
757	2.67254
758	2.93123
759	2.63983
760	2.12056
761	2.01032
762	3.46794
763	2.35484
764	1.98588
765	2.41863
766	2.3024
767	2.88517
768	2.16548
769	2.02318
770	2.16291
771	2.08336
772	2.34363
773	1.9425
774	2.21055
775	1.98702
776	2.806
777	2.03773
778	2.2543
779	2.09387
780	2.23393
781	2.23432
782	2.03216
783	2.35046
784	2.27893
785	2.11313
786	2.27705
787	2.10205
788	2.80501
789	1.94423
790	2.01672
791	2.06095
792	2.0467
793	2.09509
794	2.20951
795	1.98375
796	1.97161
797	2.14244
798	1.97991
799	2.14255
800	2.06788
801	1.85813
802	1.87303
803	2.534
804	2.08669
805	2.05895
806	2.1788
807	2.17918
808	2.15126
809	2.17951
810	2.27986
811	2.60181
812	2.81088
813	2.10648
814	2.16098
815	2.04639
816	2.07288
817	2.36934
818	2.23643
819	1.86355
820	2.07208
821	3.02065
822	2.17136
823	2.02261
824	2.08006
825	1.95159
826	1.725
827	1.94206
828	2.02304
829	1.83545
830	2.15215
831	1.96848
832	1.88112
833	2.20263
834	1.97288
835	2.02766
836	1.96611
837	1.77073
838	1.90267
839	2.19608
840	2.40994
841	2.01109
842	2.325
843	2.04871
844	1.93299
845	2.11602
846	1.95261
847	2.39934
848	2.01869
849	1.80738
850	2.0961
851	2.02513
852	1.96782
853	1.83296
854	2.01904
855	1.81781
856	2.10237
857	2.15323
858	2.01556
859	1.79859
860	1.88938
861	2.05576
862	2.51905
863	1.88988
864	2.00368
865	2.29403
866	2.12119
867	2.18341
868	1.72218
869	2.18851
870	2.16313
871	2.69334
872	3.53406
873	2.01269
874	1.99225
875	1.79887
876	2.53011
877	1.80725
878	1.88055
879	2.29197
880	2.15534
881	1.96345
882	2.194
883	1.84977
884	2.26596
885	1.91314
886	2.04562
887	2.81891
888	1.88805
889	1.85896
890	1.79497
891	2.50679
892	3.63063
893	2.25726
894	2.72257
895	2.285
896	1.87706
897	1.793
898	2.08928
899	1.88441
900	2.32017
901	4.06348
902	2.09384
903	1.79594
904	2.09563
905	2.05663
906	1.93353
907	1.68949
908	2.85595
909	2.10676
910	1.82922
911	1.82651
912	1.86611
913	2.02321
914	2.05615
915	1.93381
916	1.93939
917	1.94806
918	2.0515
919	2.02277
920	1.93799
921	2.4381
922	2.47412
923	2.20062
924	2.207
925	1.92066
926	1.80999
927	2.01612
928	1.92077
929	1.88816
930	1.94252
931	1.77675
932	1.8745
933	1.89954
934	2.06859
935	2.11688
936	1.86892
937	2.05001
938	2.00258
939	2.17592
940	1.91489
941	1.81859
942	1.92292
943	1.90946
944	1.93259
945	3.20671
946	2.05299
947	2.35525
948	2.30685
949	1.94461
950	2.09933
951	2.1197
952	1.84381
953	1.96246
954	1.88957
955	1.79263
956	2.04548
957	1.87683
958	2.00588
959	1.94416
960	1.80817
961	1.96468
962	1.86318
963	1.99148
964	2.06557
965	1.69434
966	1.7759
967	1.78918
968	1.96009
969	2.41871
970	1.95001
971	2.06422
972	1.64886
973	2.04227
974	2.20335
975	1.82794
976	2.15359
977	1.99074
978	3.19066
979	2.09971
980	2.1124
981	2.10632
982	2.09874
983	1.99695
984	2.74095
985	2.01806
986	2.28355
987	1.98161
988	2.16355
989	2.18316
990	1.91352
991	1.68372
992	2.5745
993	2.15485
994	2.22464
995	1.93457
996	2.02231
997	2.28081
998	2.4668
999	2.35777
1000	1.87847
