Data from 27_USB2G479881__0__15-50-56-171.txt Node

Date: Wed Feb 25 15:50:56 GMT 2026
User: Student
Spectrometer: USB2G47988
Scans to average: 500
Trigger mode: 4
Integration Time (sec): 1.500000E-2
Electric dark correction enabled: true
Boxcar width: 0
XAxis mode: Wavelengths
Number of Pixels in Spectrum: 651
>>>>>Begin Spectral Data<<<<<
350	-0.19124
351	-0.31055
352	0.06161
353	0.10123
354	0.33896
355	0.63374
356	0.77214
357	0.58026
358	0.665
359	0.65393
360	1.01201
361	1.43837
362	1.45964
363	1.25959
364	1.51425
365	1.98254
366	1.99419
367	1.88235
368	2.35825
369	2.20931
370	2.22507
371	2.40325
372	2.53988
373	2.53342
374	2.61069
375	2.82437
376	2.90264
377	3.58335
378	3.17989
379	3.11944
380	3.17422
381	3.49724
382	3.67721
383	3.39538
384	3.91597
385	3.87374
386	4.18856
387	4.00223
388	4.29143
389	4.47037
390	4.16271
391	4.23979
392	4.38305
393	4.68966
394	4.6502
395	4.54797
396	4.53767
397	5.02372
398	5.58739
399	5.00208
400	5.12692
401	5.30626
402	5.37307
403	5.23948
404	5.10537
405	5.1391
406	5.63758
407	5.15891
408	5.59951
409	5.41502
410	5.5776
411	5.38602
412	5.40944
413	5.45415
414	5.53879
415	5.58902
416	5.89153
417	5.55282
418	5.57048
419	5.66628
420	5.64121
421	6.05422
422	5.85975
423	5.84863
424	5.76093
425	7.21943
426	6.02415
427	5.97976
428	6.0539
429	6.40009
430	6.50686
431	6.57867
432	5.79977
433	6.22777
434	5.8395
435	5.97082
436	6.49277
437	6.15589
438	6.32814
439	6.79608
440	6.6453
441	6.09873
442	6.04545
443	6.34392
444	5.95213
445	5.65389
446	9.13741
447	6.20487
448	6.135
449	6.12938
450	6.07415
451	6.03687
452	5.99931
453	6.05466
454	6.48866
455	5.9071
456	6.05319
457	6.04737
458	5.96292
459	5.93672
460	5.90346
461	5.90742
462	5.86361
463	6.06065
464	5.80016
465	5.77893
466	5.74686
467	6.03011
468	6.11946
469	6.04328
470	5.84345
471	5.71077
472	5.92438
473	5.83908
474	5.8424
475	5.58308
476	5.66374
477	5.70358
478	5.6163
479	5.82543
480	5.38039
481	5.8581
482	5.30382
483	5.69406
484	5.51561
485	5.44798
486	5.6735
487	5.66337
488	5.55036
489	6.24411
490	5.64488
491	5.41814
492	5.71851
493	5.65277
494	5.32043
495	5.44631
496	5.45231
497	5.31982
498	5.6438
499	5.40017
500	5.25749
501	5.67908
502	5.10614
503	5.33517
504	5.38514
505	5.08406
506	4.92003
507	4.95696
508	5.17941
509	6.81633
510	5.82822
511	5.0342
512	4.72231
513	5.15172
514	4.92562
515	4.9756
516	4.98527
517	4.74081
518	5.05201
519	4.85129
520	4.95366
521	4.72429
522	4.95599
523	4.66262
524	4.69074
525	6.31696
526	5.066
527	4.82481
528	4.74341
529	5.03806
530	4.66629
531	4.64672
532	4.66636
533	4.59162
534	4.32024
535	4.88487
536	4.98381
537	5.58028
538	4.62501
539	4.48504
540	4.39723
541	4.43297
542	4.40206
543	4.53522
544	4.55137
545	4.16662
546	5.21232
547	4.55998
548	4.4341
549	4.29471
550	4.32425
551	4.01898
552	4.11336
553	3.88648
554	4.13581
555	4.26553
556	4.21664
557	4.10287
558	4.24813
559	4.23001
560	4.04203
561	3.91447
562	4.04429
563	4.20627
564	4.05958
565	3.96846
566	4.08024
567	3.81909
568	3.79035
569	4.03833
570	3.95771
571	3.72846
572	3.78426
573	3.66456
574	3.85924
575	3.89909
576	3.95375
577	3.77872
578	3.5786
579	3.63571
580	3.7075
581	3.59813
582	3.92671
583	3.74352
584	3.39231
585	3.86086
586	3.71643
587	3.66428
588	3.35759
589	3.473
590	3.65186
591	3.48179
592	3.61952
593	3.56935
594	3.76602
595	3.40679
596	3.68158
597	3.71974
598	3.941
599	3.25308
600	3.54652
601	3.85527
602	3.71995
603	3.34042
604	3.53334
605	4.14912
606	3.43591
607	3.20873
608	3.61131
609	3.3467
610	3.36033
611	3.28992
612	2.99151
613	3.12193
614	4.44996
615	3.62084
616	3.19788
617	3.48538
618	3.0889
619	3.29513
620	3.22891
621	3.34208
622	3.18895
623	3.22175
624	3.08297
625	3.33978
626	3.37341
627	3.28892
628	3.81993
629	3.67209
630	3.39324
631	3.33137
632	4.49704
633	3.58828
634	3.40144
635	3.17049
636	3.32537
637	3.57201
638	3.60543
639	3.41477
640	4.35686
641	3.60804
642	3.82552
643	3.92486
644	4.028
645	5.52454
646	5.99248
647	4.86284
648	5.00634
649	5.34885
650	5.98622
651	6.71812
652	8.32298
653	13.61475
654	29.5899
655	714.13051
656	198.88676
657	32.78749
658	12.46017
659	7.87515
660	6.06645
661	4.93678
662	4.39413
663	4.68781
664	3.87773
665	3.67769
666	3.43868
667	3.36152
668	2.99696
669	2.98735
670	3.06254
671	3.00678
672	2.89784
673	2.87009
674	2.81906
675	3.59344
676	3.1081
677	3.14814
678	3.24155
679	3.06513
680	2.80682
681	2.74934
682	2.86199
683	2.53037
684	2.88782
685	3.42426
686	2.7276
687	2.53641
688	2.56538
689	2.70771
690	2.82991
691	2.6748
692	2.56378
693	2.63618
694	2.43688
695	2.83477
696	2.59123
697	2.4301
698	2.26752
699	2.62771
700	2.3713
701	2.39757
702	2.4649
703	2.47765
704	2.42556
705	2.78349
706	2.24824
707	2.30542
708	2.36731
709	2.28976
710	2.3681
711	2.6047
712	2.44255
713	2.67764
714	2.13444
715	6.46031
716	2.41569
717	2.23396
718	2.3319
719	2.55652
720	2.26323
721	2.33982
722	2.28653
723	2.36892
724	2.06028
725	2.37654
726	2.19115
727	2.19284
728	2.27973
729	2.03615
730	3.41409
731	2.73575
732	2.3698
733	2.11186
734	2.29953
735	2.5915
736	2.54091
737	2.77823
738	2.46197
739	2.38762
740	2.16402
741	3.34047
742	2.34336
743	2.68968
744	2.51547
745	2.27366
746	2.51566
747	2.60098
748	2.74805
749	2.48057
750	2.12801
751	2.37473
752	2.04677
753	2.16661
754	1.97899
755	2.47043
756	2.1585
757	2.96527
758	3.15106
759	2.63826
760	2.26884
761	2.22117
762	2.57403
763	2.19415
764	2.12051
765	2.81612
766	2.71087
767	2.90455
768	2.02858
769	2.10511
770	1.95938
771	2.24045
772	2.29221
773	2.15848
774	2.14593
775	1.96858
776	2.74144
777	2.28437
778	2.03514
779	1.99424
780	2.14241
781	2.4291
782	1.9612
783	2.46832
784	2.24763
785	2.04314
786	2.47558
787	2.1404
788	3.01582
789	1.99297
790	2.26912
791	2.17404
792	2.08426
793	2.17714
794	2.00013
795	1.97429
796	2.08444
797	2.21745
798	1.96377
799	2.24076
800	1.99795
801	1.99908
802	2.19913
803	2.60563
804	1.81804
805	2.01412
806	2.18951
807	2.07868
808	2.23812
809	2.13674
810	2.22875
811	2.60175
812	2.88406
813	2.09569
814	1.96313
815	2.12338
816	1.93438
817	2.35971
818	2.0713
819	2.0327
820	2.08528
821	3.02822
822	2.55313
823	2.26549
824	2.08223
825	1.97712
826	2.28864
827	2.01636
828	2.12777
829	1.96231
830	2.12714
831	2.12459
832	2.11382
833	2.113
834	2.07205
835	2.21108
836	2.01843
837	1.97982
838	2.28396
839	2.15697
840	2.09831
841	2.10931
842	2.09428
843	1.96459
844	1.92975
845	1.81908
846	2.06313
847	2.52121
848	2.2288
849	2.12353
850	2.20458
851	1.91072
852	1.97869
853	1.99971
854	1.88495
855	1.96863
856	2.19451
857	1.93581
858	2.05311
859	2.0667
860	1.98232
861	1.92995
862	2.29159
863	2.1477
864	1.95822
865	2.21227
866	2.32561
867	2.18431
868	2.0096
869	2.14672
870	2.08282
871	2.72498
872	3.33433
873	2.04029
874	1.92632
875	2.29578
876	2.59904
877	2.02034
878	1.896
879	2.16756
880	2.2546
881	2.14216
882	2.10537
883	2.0397
884	2.0331
885	1.95833
886	2.00423
887	2.84993
888	2.24536
889	2.11109
890	2.19431
891	2.49123
892	3.63837
893	2.26133
894	2.84751
895	2.11542
896	2.10461
897	1.93101
898	1.95398
899	2.18714
900	2.23704
901	4.39885
902	2.06866
903	2.09926
904	1.85349
905	2.2258
906	2.05241
907	1.90457
908	2.52345
909	2.14976
910	1.82506
911	1.89029
912	2.04485
913	1.92259
914	2.05935
915	2.02966
916	2.15047
917	2.16187
918	1.98175
919	1.86034
920	1.76277
921	2.44867
922	2.61363
923	2.14531
924	2.31864
925	1.94838
926	1.90402
927	2.0037
928	2.13826
929	1.87088
930	1.8978
931	1.81161
932	2.02588
933	1.96843
934	2.14162
935	2.04455
936	1.97086
937	2.05349
938	2.0749
939	2.16958
940	1.92694
941	1.98021
942	2.00062
943	2.06931
944	2.01604
945	3.22995
946	2.03478
947	2.2422
948	2.267
949	2.02687
950	2.37932
951	2.19932
952	1.87966
953	1.85852
954	1.98952
955	2.25177
956	2.00632
957	1.87912
958	2.1324
959	2.02274
960	1.94808
961	2.08771
962	1.91496
963	2.17717
964	2.11121
965	1.80669
966	1.73738
967	1.84684
968	1.80529
969	2.49093
970	1.71996
971	2.03123
972	1.93687
973	2.06376
974	2.33987
975	1.8153
976	2.14557
977	1.87137
978	3.41474
979	2.3207
980	2.02843
981	2.28553
982	2.29304
983	2.17102
984	2.55581
985	1.78557
986	2.38426
987	1.96518
988	2.21113
989	2.01183
990	1.90059
991	1.98451
992	2.3823
993	2.03255
994	2.30486
995	1.67831
996	1.98856
997	2.324
998	2.65411
999	2.37622
1000	1.98687
