Data from 31_USB2G479881__0__15-54-50-677.txt Node

Date: Wed Feb 25 15:54:50 GMT 2026
User: Student
Spectrometer: USB2G47988
Scans to average: 500
Trigger mode: 4
Integration Time (sec): 1.500000E-2
Electric dark correction enabled: true
Boxcar width: 0
XAxis mode: Wavelengths
Number of Pixels in Spectrum: 651
>>>>>Begin Spectral Data<<<<<
350	-0.32122
351	-0.0745
352	0.03528
353	-0.00924
354	0.36968
355	0.72178
356	0.727
357	0.9427
358	1.03524
359	1.09855
360	1.11622
361	1.39819
362	1.63685
363	1.4733
364	1.50663
365	2.13243
366	2.05943
367	2.00858
368	2.55661
369	2.40872
370	2.45738
371	2.6481
372	2.79223
373	2.55653
374	2.90636
375	2.85561
376	2.96828
377	3.72768
378	3.32873
379	3.37844
380	3.52439
381	3.32354
382	3.89227
383	3.49547
384	4.32044
385	3.88502
386	4.29325
387	4.10475
388	4.34835
389	4.42096
390	4.1644
391	4.62113
392	4.35625
393	4.85195
394	4.92963
395	4.73707
396	4.59734
397	5.13662
398	5.54354
399	5.11759
400	5.12598
401	5.26668
402	5.19758
403	5.13819
404	5.26955
405	5.24958
406	5.70381
407	5.46054
408	5.52005
409	5.45983
410	5.52154
411	5.53219
412	5.49345
413	5.43228
414	5.70775
415	5.69283
416	5.92144
417	5.79228
418	5.63778
419	5.818
420	5.90387
421	6.05294
422	6.26996
423	5.90523
424	5.98383
425	7.26651
426	6.2842
427	6.06876
428	6.05476
429	6.66123
430	6.41891
431	6.58105
432	6.11745
433	6.2997
434	6.05514
435	6.30516
436	6.77264
437	6.35497
438	6.33457
439	6.59343
440	6.76721
441	6.23402
442	6.38522
443	6.30728
444	6.30181
445	5.74961
446	9.36867
447	6.44353
448	6.40435
449	6.33361
450	6.42158
451	6.31414
452	6.0971
453	6.30933
454	6.50902
455	6.19769
456	6.29685
457	6.2213
458	6.06846
459	6.08618
460	6.06589
461	6.07288
462	5.9687
463	6.11928
464	5.98167
465	5.96294
466	6.00498
467	5.96682
468	6.46122
469	6.05276
470	5.94657
471	5.85518
472	5.83333
473	5.86996
474	5.8312
475	5.62489
476	5.81212
477	5.70479
478	6.01767
479	5.81117
480	5.68556
481	6.14088
482	5.62901
483	5.44709
484	5.57989
485	5.58204
486	5.70076
487	5.72418
488	5.61482
489	6.28028
490	5.52882
491	5.56013
492	5.77339
493	5.57138
494	5.41451
495	5.47775
496	5.4485
497	5.94093
498	5.78826
499	5.42183
500	5.40424
501	5.58343
502	5.35474
503	5.27152
504	5.48811
505	5.32856
506	5.01115
507	5.0261
508	5.31332
509	7.05491
510	5.65057
511	4.94043
512	5.07136
513	5.35755
514	5.08906
515	5.12809
516	5.09361
517	5.08984
518	5.29771
519	4.92815
520	5.17777
521	4.86386
522	5.07967
523	4.75659
524	4.88388
525	6.25429
526	5.23362
527	5.11152
528	4.87446
529	5.24608
530	4.98513
531	4.89176
532	4.68573
533	4.78649
534	4.60472
535	5.00837
536	5.00212
537	5.69796
538	4.56343
539	4.75364
540	4.5219
541	4.28897
542	4.48353
543	4.51394
544	4.49958
545	4.51341
546	5.31809
547	4.4585
548	4.4715
549	4.45588
550	4.40258
551	4.14615
552	4.36559
553	4.34841
554	4.12944
555	4.19355
556	4.10292
557	3.97724
558	4.43025
559	4.15217
560	4.27478
561	4.0687
562	4.07686
563	4.04147
564	4.23763
565	3.89871
566	4.12392
567	4.13715
568	3.86158
569	4.24274
570	3.85312
571	3.77172
572	3.58254
573	3.75887
574	3.76326
575	3.7848
576	3.87934
577	3.6977
578	3.98818
579	3.66145
580	3.61344
581	3.72925
582	4.07636
583	3.80177
584	3.53328
585	4.0142
586	3.86247
587	3.69593
588	3.54559
589	3.70204
590	3.8869
591	3.65239
592	3.55287
593	3.74813
594	3.98988
595	3.39254
596	3.70355
597	3.76867
598	4.16083
599	3.51305
600	3.66416
601	3.65503
602	3.77693
603	3.41496
604	3.52293
605	4.1391
606	3.42986
607	3.44029
608	3.54645
609	3.40736
610	3.38506
611	3.39287
612	3.20691
613	3.29203
614	4.44418
615	3.64797
616	3.18057
617	3.21737
618	3.37162
619	3.23035
620	3.16214
621	3.29159
622	3.17436
623	2.99336
624	3.32432
625	3.44987
626	3.22549
627	3.38519
628	3.63355
629	3.54897
630	3.19672
631	3.32496
632	4.44503
633	3.56248
634	3.52025
635	3.5045
636	3.30756
637	3.54284
638	3.32939
639	3.37396
640	4.23031
641	3.54695
642	3.62858
643	3.77753
644	3.68956
645	5.21525
646	5.61201
647	4.39748
648	4.34752
649	4.53232
650	5.01577
651	5.50645
652	6.42511
653	10.14981
654	21.01811
655	491.59235
656	154.47062
657	27.5592
658	10.02967
659	6.62701
660	4.7738
661	4.24013
662	3.90865
663	4.25155
664	3.64679
665	3.33895
666	3.20302
667	3.10439
668	3.04561
669	2.97714
670	3.11598
671	2.86403
672	2.88411
673	2.89891
674	2.79041
675	3.62034
676	2.99674
677	3.31098
678	3.45929
679	3.19011
680	2.63138
681	2.95361
682	2.95471
683	2.76418
684	3.08006
685	3.35245
686	2.78354
687	2.75601
688	2.63858
689	2.46814
690	2.89395
691	2.55862
692	2.41206
693	2.70542
694	2.58174
695	2.86786
696	2.60062
697	2.68074
698	2.63648
699	2.81292
700	2.45835
701	2.41545
702	2.48462
703	2.58279
704	2.70017
705	2.90505
706	2.5816
707	2.47563
708	2.61004
709	2.62514
710	2.4651
711	2.70173
712	2.55204
713	2.97899
714	2.3513
715	6.59918
716	2.6454
717	2.38794
718	2.41586
719	2.82651
720	2.34156
721	2.33513
722	2.53314
723	2.43978
724	2.40714
725	2.63079
726	2.47703
727	2.26688
728	2.45002
729	2.2707
730	3.44528
731	2.82496
732	2.39737
733	2.47622
734	2.34942
735	2.38537
736	2.25038
737	2.88575
738	2.44902
739	2.64993
740	2.18429
741	3.31825
742	2.37611
743	2.9328
744	2.72422
745	2.38454
746	2.61543
747	2.64303
748	3.05874
749	2.51838
750	2.3685
751	2.31113
752	2.21434
753	2.40729
754	2.33414
755	2.53301
756	2.3958
757	2.9995
758	3.09929
759	2.98241
760	2.27347
761	2.39389
762	3.72385
763	2.33556
764	2.16049
765	2.68126
766	2.4051
767	2.93714
768	2.20694
769	2.43921
770	2.28861
771	2.24743
772	2.28446
773	2.16226
774	2.29452
775	2.20732
776	2.9304
777	2.44717
778	2.23308
779	2.2513
780	2.26943
781	2.24022
782	1.89509
783	2.54564
784	2.30378
785	2.13804
786	2.45826
787	2.33619
788	3.16957
789	2.24167
790	2.42138
791	2.0169
792	2.15255
793	2.38329
794	2.18463
795	2.05541
796	2.19059
797	2.27862
798	2.3236
799	2.12155
800	2.29882
801	2.19696
802	2.12833
803	2.78089
804	2.12216
805	2.24235
806	2.32549
807	2.30552
808	2.29346
809	2.2986
810	2.48143
811	3.0213
812	3.0018
813	2.07324
814	2.30798
815	2.19613
816	2.31715
817	2.42097
818	2.21147
819	2.03811
820	2.0517
821	3.06276
822	2.38152
823	2.08664
824	2.26037
825	2.16865
826	2.29071
827	2.15258
828	2.39555
829	2.06629
830	2.26822
831	2.23686
832	2.0349
833	2.27769
834	1.99009
835	2.34504
836	2.0507
837	2.20071
838	2.16368
839	2.31164
840	2.46976
841	2.3203
842	2.35309
843	2.21572
844	2.21994
845	1.93161
846	1.97959
847	2.63443
848	2.19215
849	2.09691
850	2.21568
851	2.14511
852	2.00184
853	2.20746
854	2.0972
855	2.20392
856	2.46358
857	2.05505
858	2.23731
859	2.08239
860	2.10329
861	2.19581
862	2.47542
863	2.10225
864	1.92452
865	2.32364
866	2.28779
867	2.28344
868	1.91018
869	2.34825
870	2.30955
871	2.72593
872	3.59439
873	2.09394
874	2.11549
875	2.21928
876	2.43132
877	2.06063
878	2.05009
879	2.46581
880	2.04419
881	2.14707
882	2.49633
883	2.03203
884	2.37879
885	1.74808
886	2.24343
887	3.04863
888	2.33512
889	2.21272
890	2.03001
891	2.56565
892	3.80807
893	2.36271
894	2.675
895	2.45316
896	2.24622
897	1.98008
898	2.37718
899	2.10963
900	2.4285
901	4.20375
902	2.35037
903	1.97139
904	2.08223
905	2.24908
906	2.10553
907	2.14983
908	2.75697
909	2.46294
910	2.1786
911	2.1298
912	2.09661
913	2.318
914	2.13254
915	2.11206
916	2.175
917	2.20716
918	2.163
919	1.99362
920	1.87923
921	2.40165
922	2.81242
923	2.37937
924	2.13762
925	2.10024
926	2.14472
927	2.218
928	1.95148
929	2.10927
930	2.08556
931	2.04287
932	2.21372
933	2.05379
934	2.21488
935	2.22035
936	2.09269
937	2.25013
938	2.29793
939	2.39882
940	2.33358
941	2.03955
942	2.04562
943	2.22237
944	2.04811
945	3.42279
946	2.20795
947	2.62644
948	2.22547
949	2.11709
950	2.48385
951	2.3583
952	2.07964
953	2.09036
954	2.09826
955	2.167
956	2.07708
957	1.96087
958	2.26152
959	2.19932
960	2.23362
961	2.21489
962	2.00481
963	2.23447
964	2.04395
965	2.085
966	1.85256
967	1.93413
968	2.29813
969	2.78234
970	2.07689
971	2.45778
972	2.00952
973	2.23041
974	2.04168
975	2.11328
976	2.43199
977	2.22818
978	2.68289
979	2.24742
980	2.26007
981	2.09642
982	2.29802
983	1.94641
984	2.64322
985	2.19502
986	2.52203
987	2.23886
988	2.43355
989	2.02242
990	1.92755
991	2.21622
992	2.60942
993	2.33931
994	2.32679
995	1.9718
996	2.00364
997	2.42124
998	2.23894
999	2.46192
1000	2.1262
