Data from 41_USB2G479881__0__16-03-05-956.txt Node

Date: Wed Feb 25 16:03:05 GMT 2026
User: Student
Spectrometer: USB2G47988
Scans to average: 500
Trigger mode: 4
Integration Time (sec): 1.500000E-2
Electric dark correction enabled: true
Boxcar width: 0
XAxis mode: Wavelengths
Number of Pixels in Spectrum: 651
>>>>>Begin Spectral Data<<<<<
350	-0.47318
351	-0.2617
352	-0.07685
353	0.30743
354	0.5043
355	0.43857
356	0.62113
357	0.63299
358	0.80032
359	0.90322
360	1.12057
361	1.19934
362	1.4116
363	1.30692
364	1.35477
365	2.01537
366	1.97678
367	2.19275
368	2.23621
369	2.24361
370	2.41451
371	2.46362
372	2.49717
373	2.56582
374	2.60032
375	2.57718
376	2.9364
377	3.25311
378	3.02215
379	2.99929
380	3.22811
381	3.3268
382	3.73779
383	3.34207
384	4.04968
385	3.66968
386	4.06733
387	3.84855
388	4.21374
389	4.23754
390	3.89924
391	3.99338
392	4.08719
393	4.57756
394	4.41511
395	4.26505
396	4.31319
397	4.83655
398	5.26257
399	4.74756
400	4.55002
401	4.80419
402	4.8377
403	4.59185
404	4.77288
405	4.68872
406	5.37704
407	5.07294
408	5.00173
409	5.08566
410	5.48763
411	5.15517
412	5.09136
413	5.08564
414	5.07218
415	5.33453
416	5.38103
417	5.08287
418	5.31353
419	5.38413
420	5.48302
421	5.72881
422	5.63939
423	5.52619
424	5.68148
425	6.75425
426	6.02182
427	5.56132
428	5.3987
429	6.07373
430	5.99967
431	6.19057
432	5.74306
433	5.96904
434	5.77152
435	5.57709
436	6.39396
437	6.02148
438	6.07318
439	6.41955
440	6.25563
441	5.60536
442	5.77915
443	6.05632
444	5.7049
445	5.39304
446	9.17107
447	5.94991
448	5.82831
449	5.95482
450	6.01348
451	5.8713
452	5.8757
453	6.03773
454	6.54734
455	5.89995
456	5.86221
457	5.98123
458	5.8026
459	5.82741
460	5.81774
461	5.72981
462	5.63313
463	5.64642
464	5.76547
465	5.55228
466	5.69927
467	5.60883
468	6.0728
469	6.08017
470	5.86865
471	5.70889
472	5.64839
473	5.49516
474	5.62888
475	5.48734
476	5.48476
477	5.57459
478	5.64673
479	5.72516
480	5.54604
481	6.02199
482	5.45531
483	5.37495
484	5.32253
485	5.2681
486	5.48399
487	5.49561
488	5.44263
489	6.29033
490	5.47444
491	5.31987
492	5.75484
493	5.28919
494	5.13425
495	5.16771
496	5.05302
497	5.31305
498	5.3922
499	5.20093
500	5.05084
501	5.27416
502	5.05391
503	5.0006
504	5.38232
505	5.13844
506	5.02738
507	4.90735
508	4.96369
509	6.80686
510	5.43982
511	5.03208
512	4.86229
513	4.84071
514	4.8395
515	4.9941
516	4.75099
517	4.6977
518	5.03415
519	4.77325
520	5.17213
521	4.90922
522	4.98575
523	4.62162
524	4.72116
525	6.1976
526	5.16213
527	4.99975
528	4.70923
529	5.18483
530	4.84338
531	4.35665
532	4.65419
533	4.71053
534	4.63776
535	4.94083
536	4.89747
537	5.61936
538	4.47441
539	4.58249
540	4.15228
541	4.37157
542	4.50922
543	4.44542
544	4.32399
545	4.46888
546	5.28536
547	4.42568
548	4.48645
549	4.35609
550	4.41081
551	4.17423
552	4.23775
553	4.13489
554	4.00231
555	4.243
556	4.179
557	4.22863
558	4.41989
559	4.13376
560	3.94556
561	3.88072
562	4.05298
563	3.86023
564	3.9867
565	3.83572
566	3.80394
567	3.75106
568	3.82733
569	4.01408
570	3.65726
571	3.58861
572	3.69842
573	3.65592
574	3.56632
575	3.66496
576	3.60507
577	3.61858
578	3.59724
579	3.68569
580	3.5424
581	3.76992
582	3.9889
583	3.66593
584	3.45563
585	3.91919
586	3.47053
587	3.65551
588	3.42422
589	3.29327
590	3.67494
591	3.51066
592	3.45325
593	3.3566
594	3.74061
595	3.31463
596	3.45986
597	3.55767
598	3.90019
599	3.32981
600	3.46915
601	3.91224
602	3.94558
603	3.51173
604	3.5375
605	3.94572
606	3.29726
607	3.02437
608	3.10146
609	3.23116
610	3.14698
611	3.31512
612	3.07473
613	3.06714
614	4.30764
615	3.49763
616	3.06101
617	3.3053
618	3.07506
619	3.09257
620	2.96738
621	2.95665
622	3.05539
623	3.10319
624	2.94606
625	3.08829
626	3.07193
627	3.14426
628	3.41311
629	3.26952
630	2.82962
631	3.1737
632	4.05422
633	3.12615
634	3.09546
635	3.03294
636	2.95837
637	2.96862
638	2.89471
639	2.93833
640	3.81834
641	2.94733
642	2.83996
643	3.08164
644	2.73701
645	3.62138
646	4.10905
647	3.06856
648	3.13372
649	2.92697
650	3.50919
651	3.44334
652	3.39454
653	4.48211
654	6.75291
655	97.93157
656	54.652
657	16.3777
658	6.06224
659	4.30794
660	3.45428
661	3.12911
662	2.92827
663	3.4502
664	2.66962
665	2.61953
666	2.74107
667	2.62597
668	2.51036
669	2.49672
670	2.49264
671	2.49403
672	2.43504
673	2.51273
674	2.5426
675	3.13083
676	2.86348
677	2.87409
678	3.07353
679	2.945
680	2.38422
681	2.66457
682	2.82231
683	2.69068
684	2.70099
685	3.03539
686	2.51794
687	2.38098
688	2.59185
689	2.40523
690	2.64847
691	2.42347
692	2.52736
693	2.55565
694	2.52127
695	2.65148
696	2.38504
697	2.37574
698	2.33898
699	2.4991
700	2.2746
701	2.20167
702	2.25655
703	2.25276
704	2.27523
705	2.6873
706	2.39385
707	2.16892
708	2.33989
709	2.44883
710	2.28049
711	2.48169
712	2.17032
713	2.68353
714	2.19421
715	6.55938
716	2.49926
717	2.23222
718	2.27484
719	2.35907
720	2.19692
721	2.35298
722	2.10506
723	2.30948
724	2.0791
725	2.48187
726	2.20669
727	2.42198
728	2.08149
729	2.12541
730	3.16534
731	2.61922
732	2.53471
733	2.15051
734	2.16213
735	2.27488
736	2.33903
737	2.82589
738	2.24858
739	2.26416
740	2.14597
741	3.17215
742	2.2809
743	2.78675
744	2.52832
745	2.28718
746	2.21758
747	2.26864
748	2.69862
749	2.29631
750	2.03911
751	2.16895
752	1.87392
753	2.09545
754	2.03417
755	2.39888
756	2.25478
757	2.87757
758	2.9974
759	2.80837
760	2.01503
761	2.00588
762	2.58322
763	2.28537
764	1.86974
765	2.61032
766	2.37567
767	3.00492
768	2.16839
769	2.30892
770	2.11793
771	2.0359
772	2.45082
773	1.86664
774	1.97105
775	2.0132
776	2.93385
777	2.243
778	2.12767
779	1.92283
780	2.01854
781	2.09455
782	1.94888
783	2.57445
784	2.23622
785	2.10103
786	2.11723
787	2.01973
788	3.07639
789	2.07728
790	1.97903
791	2.09424
792	2.0487
793	2.11738
794	2.13978
795	2.07507
796	2.01933
797	2.06314
798	2.05854
799	2.34222
800	2.208
801	2.11814
802	1.87635
803	2.62516
804	2.05021
805	1.91331
806	2.01976
807	1.95582
808	2.12445
809	1.9481
810	2.2481
811	2.46327
812	2.99795
813	2.10179
814	2.10681
815	2.3137
816	2.1346
817	2.4124
818	2.0981
819	1.89043
820	2.11195
821	2.81475
822	2.28949
823	2.07182
824	2.08978
825	1.9104
826	2.0724
827	1.85256
828	1.94425
829	2.04549
830	2.09307
831	1.90278
832	1.93593
833	1.90683
834	1.92789
835	2.06005
836	2.1003
837	2.13438
838	2.15622
839	2.04683
840	2.3593
841	2.05653
842	2.01529
843	1.978
844	2.12814
845	1.86536
846	1.88999
847	2.28627
848	2.01774
849	2.0137
850	2.01558
851	1.87484
852	1.8693
853	1.84821
854	1.84216
855	1.9905
856	2.23177
857	1.92687
858	1.84776
859	1.86651
860	2.05149
861	1.92478
862	2.32253
863	2.07406
864	1.96766
865	2.34729
866	2.55849
867	2.40186
868	2.12518
869	2.40769
870	2.15803
871	2.62889
872	3.45888
873	2.01696
874	2.07477
875	2.13281
876	2.34506
877	1.90813
878	1.93245
879	2.22529
880	2.16926
881	2.11006
882	2.26189
883	1.87129
884	2.04267
885	1.9932
886	1.91747
887	2.7851
888	2.08935
889	2.0201
890	2.00934
891	2.43553
892	3.87606
893	2.34254
894	2.67756
895	2.28837
896	2.1075
897	1.98496
898	2.13325
899	1.88619
900	2.38602
901	4.04772
902	2.15836
903	1.90053
904	1.87313
905	2.16954
906	1.85538
907	1.95373
908	2.83275
909	2.09695
910	1.92084
911	2.04458
912	1.88032
913	1.76058
914	1.93348
915	1.95658
916	1.75045
917	2.12362
918	1.90538
919	1.72166
920	2.03491
921	2.24274
922	2.60444
923	2.18862
924	2.06113
925	2.03618
926	1.88216
927	2.00524
928	1.84078
929	1.82066
930	2.06329
931	2.07166
932	2.09109
933	1.95866
934	2.07715
935	2.14992
936	2.00968
937	1.94666
938	2.16696
939	2.11976
940	1.99425
941	1.94601
942	1.87768
943	1.84628
944	1.87961
945	3.21699
946	1.89277
947	2.3545
948	2.2845
949	2.03358
950	2.23875
951	2.12715
952	1.74923
953	1.84764
954	2.23354
955	2.15047
956	1.804
957	1.86523
958	2.14036
959	2.27648
960	1.89959
961	1.85259
962	1.83902
963	2.07675
964	2.02969
965	2.03503
966	2.05242
967	1.9269
968	1.89992
969	2.36472
970	1.9561
971	2.02591
972	1.7946
973	1.91306
974	2.27364
975	1.95628
976	2.08875
977	1.92264
978	3.2947
979	2.14825
980	2.04994
981	1.96278
982	2.19048
983	1.90974
984	2.58599
985	1.96969
986	2.26761
987	1.89829
988	2.15864
989	2.01926
990	1.95258
991	1.7866
992	2.37385
993	1.9758
994	1.84468
995	1.9381
996	1.94767
997	2.28619
998	2.42178
999	2.48098
1000	1.97479
